File: notebooks/data/xrd_data/ML_20220720_3_SJD_4_LaB6-2min.uxd
; (content of file Y:\Sam\Apurva-07-20-2022\puck4\ML_20220718_3_SJD_0_LaB6-2min.raw)
_FILEVERSION = 3
_SAMPLE = ML_20220718_3_SJD_0_LaB6-2mi
_+SAMPLE =
_SITE = USA
_USER = Administrator
_GONIOMETER_CODE = 20
; Goniometer : D8 theta/2theta, stage : Unknown
_ATTACHMENTS_CODE = 0
_GONIOMETER_RADIUS = 200.5
_FIXED_DIVSLIT = 0.6
_FIXED_SAMPLESLIT = 0
_SOLLER_SLITS = 2
_FIXED_DETSLIT = 9.55
_MONOCHROMATOR = 0
; Incident beam monochromator : None
_SOLLER_SLITS_2 = N
_THIN_FILM = N
_BETA_FILTER = Y
_FIXED_ANTISLIT = 5.89
_ANALYZER_CODE = 0
; Received beam analyzer : None
_DATEMEASURED = "21-Jul-2022 02:53:54"
_WL_UNIT = A
_WL1 = 1.5406
_WL2 = 1.54439
_WL3 = 1.39222
_WLRATIO = 0.5
_ANODE = Cu
_V4_INF_CREATOR = XRDWizard
_V4_INF_CREATOR_VERSION = V2.9.0.22
_V4_INF_WIZARD_VERSION = V2.9.0.22
_V4_INF_WIZARD_ADDINS = V2.9.0.22
_V4_INF_WIZARD_DOCTYPE = XRD
_V4_INF_OSUSER = McQueenLab
_V4_INF_USER = Administrator
_V4_INF_SITE = USA
_V4_INF_SAMPLEID = ML_20220718_3_SJD_0_LaB6-2mi

; Data for range 1
_DRIVE = COUPLED
_STEPTIME = 5.64
_STEPSIZE = 0.0185756
_STEPMODE = C
_START = 5
_THETA = 2.5
_2THETA = 5
_KHI = 0
_PHI = 0
_X = 0
_Y = 0
_Z = 0
_DETECTOR = 5
; Detector type : Unknown
_DETECTORSLIT = unkn
_AUX1 = 0
_AUX2 = 0
_AUX3 = 0
_TIMESTARTED = 15
_TEMP_RATE = -1
_TEMP_DELAY = -1
_KV = 40
_MA = 40
_RANGE_WL = 1.5406
_3DPLANE = 0
_V4_ADDITIONALDETECTOR = 257
_V4_PSD2THETA = 3.4139
_V4_PSDCHANNEL1 = 0
_V4_PSDAPERTURE = 12.68
_V4_PSDTYPE = 5
_V4_PSDFIXED = 0
_V4_COUNTERS_MASK = 4096
_V4_DRIVES_MASK = 0
_V4_ENCODERS_MASK = 0
_2THETACOUNTS = 1
; 2THETA  PSD
   5.0000        127
   5.1858        113
   5.3715        131
   5.5573        107
   5.7430        107
   5.9288        123
   6.1145         94
   6.3003         98
   6.4860         86
   6.6718         97
   6.8576         83
   7.0433         72
   7.2291         76
   7.4148         90
   7.6006         97
   7.7863         77
   7.9721        110
   8.1579         89
   8.3436         75
   8.5294        109
   8.7151        100
   8.9009         92
   9.0866         97
   9.2724        107
   9.4581         96
   9.6439        100
   9.8297        114
  10.0154        116
  10.2012        100
  10.3869         96
  10.5727        111
  10.7584        134
  10.9442        123
  11.1299        110
  11.3157        120
  11.5015        120
  11.6872        119
  11.8730        114
  12.0587        110
  12.2445        103
  12.4302        108
  12.6160        101
  12.8018        111
  12.9875         95
  13.1733         93
  13.3590         89
  13.5448         88
  13.7305         90
  13.9163         90
  14.1020         86
  14.2878         89
  14.4736         70
  14.6593         92
  14.8451         71
  15.0308         99
  15.2166         83
  15.4023         81
  15.5881         68
  15.7738         72
  15.9596         71
  16.1454         91
  16.3311         85
  16.5169         90
  16.7026         56
  16.8884         75
  17.0741         77
  17.2599         70
  17.4457         83
  17.6314         80
  17.8172         84
  18.0029         82
  18.1887         74
  18.3744         82
  18.5602         69
  18.7459         90
  18.9317         90
  19.1175         76
  19.3032         85
  19.4890         92
  19.6747         88
  19.8605         77
  20.0462         74
  20.2320         93
  20.4177         80
  20.6035         80
  20.7893        102
  20.9750         91
  21.1608        129
  21.3465        271
  21.5323         88
  21.7180        111
  21.9038        102
  22.0896         98
  22.2753        105
  22.4611         86
  22.6468         81
  22.8326        104
  23.0183        120
  23.2041        103
  23.3898        109
  23.5756        110
  23.7614        106
  23.9471         95
  24.1329         97
  24.3186        102
  24.5044        109
  24.6901        100
  24.8759        106
  25.0616         91
  25.2474         73
  25.4332         88
  25.6189         92
  25.8047         88
  25.9904         88
  26.1762        106
  26.3619         96
  26.5477         87
  26.7335        120
  26.9192         87
  27.1050         92
  27.2907        114
  27.4765         84
  27.6622         85
  27.8480         80
  28.0337        101
  28.2195         72
  28.4053         92
  28.5910         72
  28.7768         62
  28.9625         75
  29.1483         79
  29.3340         85
  29.5198         73
  29.7055         64
  29.8913         78
  30.0771         82
  30.2628         83
  30.4486        116
  30.6343         67
  30.8201         76
  31.0058         62
  31.1916         72
  31.3774         67
  31.5631         61
  31.7489         61
  31.9346         72
  32.1204         64
  32.3061         57
  32.4919         73
  32.6776         62
  32.8634         61
  33.0492         66
  33.2349         70
  33.4207         62
  33.6064         54
  33.7922         53
  33.9779         48
  34.1637         67
  34.3494         65
  34.5352         67
  34.7210         82
  34.9067         66
  35.0925         60
  35.2782         57
  35.4640         47
  35.6497         45
  35.8355         51
  36.0213         44
  36.2070         37
  36.3928         56
  36.5785         36
  36.7643         53
  36.9500         42
  37.1358         57
  37.3215         39
  37.5073         66
  37.6931         40
  37.8788         33
  38.0646         43
  38.2503         39
  38.4361         37
  38.6218         38
  38.8076         46
  38.9933         38
  39.1791         40
  39.3649         24
  39.5506         33
  39.7364         42
  39.9221         30
  40.1079         42
  40.2936         44
  40.4794         38
  40.6652         46
  40.8509         38
  41.0367         31
  41.2224         44
  41.4082         42
  41.5939         33
  41.7797         29
  41.9654         26
  42.1512         44
  42.3370         44
  42.5227         39
  42.7085         38
  42.8942         48
  43.0800         34
  43.2657         46
  43.4515         43
  43.6372         49
  43.8230         32
  44.0088         37
  44.1945         45
  44.3803         39
  44.5660         48
  44.7518         36
  44.9375         40
  45.1233         30
  45.3091         32
  45.4948         38
  45.6806         35
  45.8663         28
  46.0521         31
  46.2378         37
  46.4236         39
  46.6093         27
  46.7951         33
  46.9809         25
  47.1666         40
  47.3524         24
  47.5381         40
  47.7239         32
  47.9096         37
  48.0954         31
  48.2811         26
  48.4669         32
  48.6527         29
  48.8384         31
  49.0242         31
  49.2099         37
  49.3957         28
  49.5814         24
  49.7672         28
  49.9530         30
  50.1387         36
  50.3245         32
  50.5102         36
  50.6960         37
  50.8817         20
  51.0675         28
  51.2532         31
  51.4390         34
  51.6248         39
  51.8105         38
  51.9963         32
  52.1820         30
  52.3678         27
  52.5535         24
  52.7393         30
  52.9250         23
  53.1108         21
  53.2966         36
  53.4823         33
  53.6681         33
  53.8538         34
  54.0396         33
  54.2253         36
  54.4111         28
  54.5969         28
  54.7826         31
  54.9684         24
  55.1541         25
  55.3399         28
  55.5256         27
  55.7114         31
  55.8971         19
  56.0829         40
  56.2687         31
  56.4544         28
  56.6402         22
  56.8259         33
  57.0117         25
  57.1974         26
  57.3832         28
  57.5689         30
  57.7547         25
  57.9405         24
  58.1262         23
  58.3120         20
  58.4977         27
  58.6835         33
  58.8692         29
  59.0550         22
  59.2408         17
  59.4265         18
  59.6123         32
  59.7980         28
  59.9838         31
  60.0024         19