File: notebooks/data/xrd_data/ML_20220720_31_SJD_4_LaB6-1min.uxd
; (content of file Y:\Sam\Apurva-07-20-2022\puck2\ML_20220720_31_SJD_0_LaB6-1min.raw)
_FILEVERSION = 3
_SAMPLE = ML_20220720_31_SJD_0_LaB6-1mi
_+SAMPLE =
_SITE = USA
_USER = Administrator
_GONIOMETER_CODE = 20
; Goniometer : D8 theta/2theta, stage : Unknown
_ATTACHMENTS_CODE = 0
_GONIOMETER_RADIUS = 200.5
_FIXED_DIVSLIT = 0.6
_FIXED_SAMPLESLIT = 0
_SOLLER_SLITS = 2
_FIXED_DETSLIT = 9.55
_MONOCHROMATOR = 0
; Incident beam monochromator : None
_SOLLER_SLITS_2 = N
_THIN_FILM = N
_BETA_FILTER = Y
_FIXED_ANTISLIT = 5.89
_ANALYZER_CODE = 0
; Received beam analyzer : None
_DATEMEASURED = "25-Jul-2022 18:44:16"
_WL_UNIT = A
_WL1 = 1.5406
_WL2 = 1.54439
_WL3 = 1.39222
_WLRATIO = 0.5
_ANODE = Cu
_V4_INF_CREATOR = XRDWizard
_V4_INF_CREATOR_VERSION = V2.9.0.22
_V4_INF_WIZARD_VERSION = V2.9.0.22
_V4_INF_WIZARD_ADDINS = V2.9.0.22
_V4_INF_WIZARD_DOCTYPE = XRD
_V4_INF_OSUSER = McQueenLab
_V4_INF_USER = Administrator
_V4_INF_SITE = USA
_V4_INF_SAMPLEID = ML_20220720_31_SJD_0_LaB6-1mi

; Data for range 1
_DRIVE = COUPLED
_STEPTIME = 4.23
_STEPSIZE = 0.0185756
_STEPMODE = C
_START = 5
_THETA = 2.5
_2THETA = 5
_KHI = 0
_PHI = 0
_X = 0
_Y = 0
_Z = 0
_DETECTOR = 5
; Detector type : Unknown
_DETECTORSLIT = unkn
_AUX1 = 0
_AUX2 = 0
_AUX3 = 0
_TIMESTARTED = 15
_TEMP_RATE = -1
_TEMP_DELAY = -1
_KV = 40
_MA = 40
_RANGE_WL = 1.5406
_3DPLANE = 0
_V4_ADDITIONALDETECTOR = 257
_V4_PSD2THETA = 3.3733
_V4_PSDCHANNEL1 = 0
_V4_PSDAPERTURE = 12.68
_V4_PSDTYPE = 5
_V4_PSDFIXED = 0
_V4_COUNTERS_MASK = 4096
_V4_DRIVES_MASK = 0
_V4_ENCODERS_MASK = 0
_2THETACOUNTS = 1
; 2THETA  PSD
   5.0000        112
   5.1858        106
   5.3715         81
   5.5573         98
   5.7430         61
   5.9288         65
   6.1145         65
   6.3003         56
   6.4860         75
   6.6718         60
   6.8576         70
   7.0433         54
   7.2291         62
   7.4148         50
   7.6006         51
   7.7863         57
   7.9721         64
   8.1579         91
   8.3436         63
   8.5294         91
   8.7151         87
   8.9009         75
   9.0866         77
   9.2724         94
   9.4581         74
   9.6439         94
   9.8297         78
  10.0154         86
  10.2012         73
  10.3869         86
  10.5727         86
  10.7584         77
  10.9442         96
  11.1299         84
  11.3157         91
  11.5015         79
  11.6872         82
  11.8730         98
  12.0587         67
  12.2445         72
  12.4302         88
  12.6160         79
  12.8018         74
  12.9875         64
  13.1733         64
  13.3590         65
  13.5448         79
  13.7305         74
  13.9163         77
  14.1020         62
  14.2878         51
  14.4736         58
  14.6593         52
  14.8451         58
  15.0308         53
  15.2166         62
  15.4023         64
  15.5881         52
  15.7738         52
  15.9596         57
  16.1454         59
  16.3311         59
  16.5169         62
  16.7026         61
  16.8884         71
  17.0741         63
  17.2599         42
  17.4457         50
  17.6314         62
  17.8172         50
  18.0029         64
  18.1887         76
  18.3744         61
  18.5602         67
  18.7459         65
  18.9317         61
  19.1175         66
  19.3032         60
  19.4890         64
  19.6747         60
  19.8605         56
  20.0462         53
  20.2320         61
  20.4177         67
  20.6035         78
  20.7893         62
  20.9750         72
  21.1608         95
  21.3465        174
  21.5323         77
  21.7180         87
  21.9038         63
  22.0896         61
  22.2753         83
  22.4611         67
  22.6468         69
  22.8326         73
  23.0183         91
  23.2041         84
  23.3898         63
  23.5756         65
  23.7614         68
  23.9471         78
  24.1329         77
  24.3186         87
  24.5044         84
  24.6901         68
  24.8759         73
  25.0616         51
  25.2474         73
  25.4332         67
  25.6189         73
  25.8047         71
  25.9904         82
  26.1762         64
  26.3619         81
  26.5477         67
  26.7335         70
  26.9192         92
  27.1050         59
  27.2907         75
  27.4765         65
  27.6622         66
  27.8480         65
  28.0337         63
  28.2195         68
  28.4053         65
  28.5910         72
  28.7768         51
  28.9625         71
  29.1483         56
  29.3340         58
  29.5198         72
  29.7055         59
  29.8913         52
  30.0771         46
  30.2628         72
  30.4486         87
  30.6343         62
  30.8201         58
  31.0058         50
  31.1916         65
  31.3774         49
  31.5631         58
  31.7489         58
  31.9346         54
  32.1204         47
  32.3061         51
  32.4919         61
  32.6776         41
  32.8634         37
  33.0492         40
  33.2349         50
  33.4207         58
  33.6064         38
  33.7922         42
  33.9779         37
  34.1637         39
  34.3494         32
  34.5352         38
  34.7210         43
  34.9067         49
  35.0925         40
  35.2782         33
  35.4640         44
  35.6497         28
  35.8355         35
  36.0213         33
  36.2070         37
  36.3928         33
  36.5785         35
  36.7643         42
  36.9500         35
  37.1358         37
  37.3215         36
  37.5073         45
  37.6931         31
  37.8788         30
  38.0646         43
  38.2503         24
  38.4361         29
  38.6218         30
  38.8076         34
  38.9933         35
  39.1791         38
  39.3649         26
  39.5506         29
  39.7364         33
  39.9221         24
  40.1079         36
  40.2936         27
  40.4794         16
  40.6652         27
  40.8509         27
  41.0367         35
  41.2224         31
  41.4082         27
  41.5939         23
  41.7797         28
  41.9654         39
  42.1512         35
  42.3370         25
  42.5227         29
  42.7085         37
  42.8942         36
  43.0800         25
  43.2657         23
  43.4515         39
  43.6372         42
  43.8230         22
  44.0088         19
  44.1945         26
  44.3803         24
  44.5660         24
  44.7518         23
  44.9375         33
  45.1233         22
  45.3091         15
  45.4948         25
  45.6806         29
  45.8663         22
  46.0521         30
  46.2378         21
  46.4236         28
  46.6093         12
  46.7951         23
  46.9809         26
  47.1666         20
  47.3524         27
  47.5381         20
  47.7239         17
  47.9096         24
  48.0954         28
  48.2811         30
  48.4669         27
  48.6527         23
  48.8384         26
  49.0242         21
  49.2099         25
  49.3957         23
  49.5814         26
  49.7672         24
  49.9530         19
  50.1387         25
  50.3245         24
  50.5102         21
  50.6960         15
  50.8817         25
  51.0675         24
  51.2532         22
  51.4390         29
  51.6248         14
  51.8105         35
  51.9963         30
  52.1820         18
  52.3678         21
  52.5535         28
  52.7393         21
  52.9250         23
  53.1108         23
  53.2966         22
  53.4823         20
  53.6681         29
  53.8538         23
  54.0396         23
  54.2253         20
  54.4111         18
  54.5969         23
  54.7826         24
  54.9684         26
  55.1541         26
  55.3399         27
  55.5256         18
  55.7114         17
  55.8971         15
  56.0829         22
  56.2687         32
  56.4544         21
  56.6402         26
  56.8259         25
  57.0117         21
  57.1974         21
  57.3832         25
  57.5689         19
  57.7547         20
  57.9405         25
  58.1262         20
  58.3120         24
  58.4977         15
  58.6835         24
  58.8692         16
  59.0550         12
  59.2408         15
  59.4265         17
  59.6123         19
  59.7980         18
  59.9838         17
  60.0024         19