File: notebooks/data/xrd_data/ML_20220718_44_SJD_4_LaB6-4min.csv
;,2THETA,
5.0000,262
5.1858,255
5.3715,232
5.5573,251
5.7430,209
5.9288,210
6.1145,199
6.3003,198
6.4860,173
6.6718,173
6.8576,166
7.0433,153
7.2291,154
7.4148,167
7.6006,153
7.7863,164
7.9721,204
8.1579,193
8.3436,214
8.5294,198
8.7151,191
8.9009,252
9.0866,184
9.2724,224
9.4581,230
9.6439,211
9.8297,219
10.0154,198
10.2012,266
10.3869,242
10.5727,246
10.7584,230
10.9442,238
11.1299,214
11.3157,236
11.5015,246
11.6872,248
11.8730,221
12.0587,230
12.2445,219
12.4302,209
12.6160,209
12.8018,209
12.9875,206
13.1733,185
13.3590,196
13.5448,201
13.7305,182
13.9163,187
14.1020,195
14.2878,171
14.4736,164
14.6593,164
14.8451,168
15.0308,167
15.2166,179
15.4023,159
15.5881,178
15.7738,151
15.9596,177
16.1454,160
16.3311,174
16.5169,155
16.7026,150
16.8884,161
17.0741,177
17.2599,149
17.4457,167
17.6314,151
17.8172,163
18.0029,154
18.1887,164
18.3744,156
18.5602,166
18.7459,141
18.9317,160
19.1175,155
19.3032,180
19.4890,156
19.6747,173
19.8605,174
20.0462,188
20.2320,179
20.4177,186
20.6035,188
20.7893,193
20.9750,183
21.1608,222
21.3465,508
21.5323,188
21.7180,187
21.9038,211
22.0896,207
22.2753,191
22.4611,212
22.6468,189
22.8326,212
23.0183,191
23.2041,190
23.3898,180
23.5756,208
23.7614,190
23.9471,215
24.1329,193
24.3186,212
24.5044,206
24.6901,182
24.8759,190
25.0616,200
25.2474,192
25.4332,180
25.6189,192
25.8047,188
25.9904,185
26.1762,202
26.3619,170
26.5477,185
26.7335,191
26.9192,175
27.1050,213
27.2907,240
27.4765,201
27.6622,157
27.8480,176
28.0337,202
28.2195,174
28.4053,182
28.5910,172
28.7768,160
28.9625,158
29.1483,171
29.3340,164
29.5198,165
29.7055,165
29.8913,178
30.0771,147
30.2628,164
30.4486,245
30.6343,165
30.8201,155
31.0058,141
31.1916,126
31.3774,157
31.5631,124
31.7489,151
31.9346,128
32.1204,121
32.3061,111
32.4919,141
32.6776,120
32.8634,123
33.0492,119
33.2349,121
33.4207,108
33.6064,123
33.7922,115
33.9779,109
34.1637,107
34.3494,108
34.5352,127
34.7210,136
34.9067,128
35.0925,116
35.2782,95
35.4640,86
35.6497,114
35.8355,103
36.0213,102
36.2070,95
36.3928,103
36.5785,102
36.7643,96
36.9500,88
37.1358,87
37.3215,83
37.5073,112
37.6931,96
37.8788,78
38.0646,98
38.2503,86
38.4361,83
38.6218,66
38.8076,104
38.9933,69
39.1791,73
39.3649,81
39.5506,78
39.7364,95
39.9221,75
40.1079,69
40.2936,64
40.4794,75
40.6652,69
40.8509,63
41.0367,96
41.2224,83
41.4082,74
41.5939,63
41.7797,69
41.9654,66
42.1512,67
42.3370,61
42.5227,76
42.7085,66
42.8942,71
43.0800,90
43.2657,98
43.4515,81
43.6372,101
43.8230,65
44.0088,65
44.1945,83
44.3803,89
44.5660,80
44.7518,72
44.9375,74
45.1233,78
45.3091,58
45.4948,57
45.6806,68
45.8663,69
46.0521,58
46.2378,64
46.4236,56
46.6093,61
46.7951,68
46.9809,59
47.1666,72
47.3524,74
47.5381,45
47.7239,66
47.9096,61
48.0954,72
48.2811,68
48.4669,74
48.6527,66
48.8384,69
49.0242,81
49.2099,58
49.3957,77
49.5814,53
49.7672,59
49.9530,61
50.1387,51
50.3245,73
50.5102,50
50.6960,68
50.8817,55
51.0675,60
51.2532,63
51.4390,79
51.6248,61
51.8105,71
51.9963,68
52.1820,60
52.3678,59
52.5535,49
52.7393,67
52.9250,77
53.1108,50
53.2966,52
53.4823,58
53.6681,60
53.8538,66
54.0396,66
54.2253,58
54.4111,68
54.5969,52
54.7826,54
54.9684,49
55.1541,52
55.3399,41
55.5256,43
55.7114,62
55.8971,66
56.0829,67
56.2687,66
56.4544,64
56.6402,71
56.8259,52
57.0117,58
57.1974,57
57.3832,64
57.5689,58
57.7547,71
57.9405,61
58.1262,51
58.3120,56
58.4977,50
58.6835,56
58.8692,55
59.0550,63
59.2408,50
59.4265,45
59.6123,46
59.7980,56
59.9838,53
60.0024,51