File: notebooks/data/xrd_data/ML_20220718_59_SJD_4_LaB6-2min.csv
;,2THETA,
5.0000,122
5.1858,129
5.3715,126
5.5573,123
5.7430,103
5.9288,98
6.1145,95
6.3003,86
6.4860,86
6.6718,80
6.8576,75
7.0433,74
7.2291,88
7.4148,85
7.6006,83
7.7863,72
7.9721,95
8.1579,101
8.3436,108
8.5294,102
8.7151,106
8.9009,78
9.0866,98
9.2724,109
9.4581,110
9.6439,112
9.8297,118
10.0154,118
10.2012,123
10.3869,111
10.5727,133
10.7584,126
10.9442,113
11.1299,99
11.3157,112
11.5015,116
11.6872,124
11.8730,97
12.0587,120
12.2445,123
12.4302,100
12.6160,111
12.8018,96
12.9875,102
13.1733,94
13.3590,83
13.5448,99
13.7305,89
13.9163,104
14.1020,98
14.2878,79
14.4736,73
14.6593,98
14.8451,71
15.0308,73
15.2166,90
15.4023,80
15.5881,90
15.7738,89
15.9596,86
16.1454,79
16.3311,87
16.5169,91
16.7026,91
16.8884,67
17.0741,79
17.2599,72
17.4457,74
17.6314,81
17.8172,59
18.0029,70
18.1887,71
18.3744,83
18.5602,89
18.7459,78
18.9317,100
19.1175,78
19.3032,84
19.4890,92
19.6747,85
19.8605,80
20.0462,88
20.2320,89
20.4177,74
20.6035,104
20.7893,74
20.9750,97
21.1608,106
21.3465,239
21.5323,105
21.7180,78
21.9038,98
22.0896,93
22.2753,96
22.4611,105
22.6468,102
22.8326,108
23.0183,84
23.2041,100
23.3898,100
23.5756,92
23.7614,87
23.9471,98
24.1329,106
24.3186,105
24.5044,101
24.6901,109
24.8759,116
25.0616,117
25.2474,109
25.4332,96
25.6189,118
25.8047,110
25.9904,92
26.1762,86
26.3619,80
26.5477,96
26.7335,85
26.9192,80
27.1050,101
27.2907,108
27.4765,94
27.6622,107
27.8480,81
28.0337,79
28.2195,80
28.4053,90
28.5910,95
28.7768,85
28.9625,73
29.1483,68
29.3340,75
29.5198,86
29.7055,87
29.8913,76
30.0771,73
30.2628,60
30.4486,111
30.6343,64
30.8201,79
31.0058,85
31.1916,59
31.3774,49
31.5631,68
31.7489,78
31.9346,90
32.1204,57
32.3061,69
32.4919,73
32.6776,64
32.8634,53
33.0492,62
33.2349,59
33.4207,54
33.6064,60
33.7922,46
33.9779,54
34.1637,53
34.3494,55
34.5352,49
34.7210,76
34.9067,54
35.0925,54
35.2782,57
35.4640,39
35.6497,46
35.8355,45
36.0213,44
36.2070,47
36.3928,55
36.5785,40
36.7643,40
36.9500,38
37.1358,44
37.3215,59
37.5073,52
37.6931,35
37.8788,28
38.0646,37
38.2503,45
38.4361,48
38.6218,43
38.8076,47
38.9933,48
39.1791,44
39.3649,45
39.5506,33
39.7364,32
39.9221,49
40.1079,48
40.2936,36
40.4794,46
40.6652,41
40.8509,54
41.0367,49
41.2224,27
41.4082,35
41.5939,40
41.7797,38
41.9654,37
42.1512,41
42.3370,40
42.5227,31
42.7085,31
42.8942,39
43.0800,29
43.2657,40
43.4515,44
43.6372,53
43.8230,31
44.0088,35
44.1945,38
44.3803,43
44.5660,32
44.7518,43
44.9375,36
45.1233,29
45.3091,27
45.4948,41
45.6806,38
45.8663,30
46.0521,30
46.2378,34
46.4236,24
46.6093,34
46.7951,36
46.9809,23
47.1666,25
47.3524,35
47.5381,32
47.7239,32
47.9096,28
48.0954,23
48.2811,32
48.4669,28
48.6527,29
48.8384,43
49.0242,46
49.2099,26
49.3957,32
49.5814,24
49.7672,19
49.9530,37
50.1387,31
50.3245,25
50.5102,37
50.6960,25
50.8817,30
51.0675,28
51.2532,27
51.4390,31
51.6248,25
51.8105,25
51.9963,17
52.1820,28
52.3678,28
52.5535,23
52.7393,31
52.9250,25
53.1108,37
53.2966,25
53.4823,26
53.6681,32
53.8538,21
54.0396,34
54.2253,36
54.4111,25
54.5969,31
54.7826,28
54.9684,32
55.1541,24
55.3399,40
55.5256,30
55.7114,52
55.8971,28
56.0829,40
56.2687,26
56.4544,36
56.6402,18
56.8259,32
57.0117,26
57.1974,30
57.3832,38
57.5689,25
57.7547,36
57.9405,25
58.1262,33
58.3120,31
58.4977,22
58.6835,27
58.8692,22
59.0550,35
59.2408,26
59.4265,27
59.6123,30
59.7980,37
59.9838,27
60.0024,27