File: notebooks/data/xrd_data/ML_20220718_22_SJD_4_LaB6-2min.csv
;,2THETA,
5.0000,132
5.1858,134
5.3715,132
5.5573,128
5.7430,115
5.9288,100
6.1145,94
6.3003,95
6.4860,96
6.6718,87
6.8576,98
7.0433,75
7.2291,98
7.4148,85
7.6006,90
7.7863,93
7.9721,85
8.1579,88
8.3436,103
8.5294,97
8.7151,112
8.9009,122
9.0866,105
9.2724,100
9.4581,112
9.6439,120
9.8297,132
10.0154,123
10.2012,100
10.3869,120
10.5727,120
10.7584,120
10.9442,98
11.1299,131
11.3157,96
11.5015,109
11.6872,133
11.8730,110
12.0587,106
12.2445,110
12.4302,115
12.6160,103
12.8018,93
12.9875,102
13.1733,113
13.3590,106
13.5448,108
13.7305,84
13.9163,81
14.1020,94
14.2878,83
14.4736,82
14.6593,86
14.8451,79
15.0308,99
15.2166,91
15.4023,78
15.5881,75
15.7738,95
15.9596,93
16.1454,84
16.3311,82
16.5169,97
16.7026,87
16.8884,84
17.0741,74
17.2599,71
17.4457,76
17.6314,67
17.8172,92
18.0029,72
18.1887,81
18.3744,83
18.5602,84
18.7459,80
18.9317,83
19.1175,81
19.3032,97
19.4890,89
19.6747,95
19.8605,75
20.0462,100
20.2320,97
20.4177,99
20.6035,86
20.7893,99
20.9750,101
21.1608,130
21.3465,244
21.5323,103
21.7180,108
21.9038,107
22.0896,99
22.2753,99
22.4611,107
22.6468,116
22.8326,89
23.0183,94
23.2041,94
23.3898,92
23.5756,93
23.7614,104
23.9471,114
24.1329,111
24.3186,121
24.5044,97
24.6901,76
24.8759,102
25.0616,91
25.2474,95
25.4332,87
25.6189,83
25.8047,97
25.9904,96
26.1762,88
26.3619,96
26.5477,114
26.7335,90
26.9192,94
27.1050,97
27.2907,110
27.4765,79
27.6622,91
27.8480,94
28.0337,80
28.2195,93
28.4053,87
28.5910,93
28.7768,73
28.9625,74
29.1483,82
29.3340,86
29.5198,77
29.7055,89
29.8913,79
30.0771,75
30.2628,97
30.4486,119
30.6343,77
30.8201,73
31.0058,72
31.1916,64
31.3774,71
31.5631,71
31.7489,72
31.9346,62
32.1204,72
32.3061,71
32.4919,70
32.6776,65
32.8634,64
33.0492,54
33.2349,71
33.4207,47
33.6064,62
33.7922,56
33.9779,50
34.1637,57
34.3494,74
34.5352,66
34.7210,73
34.9067,76
35.0925,66
35.2782,47
35.4640,50
35.6497,54
35.8355,43
36.0213,56
36.2070,41
36.3928,42
36.5785,54
36.7643,46
36.9500,38
37.1358,49
37.3215,53
37.5073,56
37.6931,47
37.8788,65
38.0646,49
38.2503,43
38.4361,43
38.6218,48
38.8076,40
38.9933,38
39.1791,47
39.3649,36
39.5506,44
39.7364,45
39.9221,41
40.1079,57
40.2936,31
40.4794,32
40.6652,44
40.8509,40
41.0367,33
41.2224,32
41.4082,43
41.5939,38
41.7797,36
41.9654,37
42.1512,40
42.3370,37
42.5227,36
42.7085,39
42.8942,24
43.0800,38
43.2657,47
43.4515,35
43.6372,52
43.8230,33
44.0088,30
44.1945,26
44.3803,33
44.5660,32
44.7518,36
44.9375,41
45.1233,41
45.3091,32
45.4948,30
45.6806,39
45.8663,49
46.0521,30
46.2378,28
46.4236,38
46.6093,36
46.7951,21
46.9809,25
47.1666,29
47.3524,36
47.5381,27
47.7239,28
47.9096,34
48.0954,26
48.2811,35
48.4669,23
48.6527,27
48.8384,30
49.0242,40
49.2099,50
49.3957,35
49.5814,26
49.7672,32
49.9530,26
50.1387,32
50.3245,34
50.5102,27
50.6960,24
50.8817,34
51.0675,22
51.2532,16
51.4390,34
51.6248,35
51.8105,38
51.9963,35
52.1820,20
52.3678,23
52.5535,30
52.7393,32
52.9250,33
53.1108,32
53.2966,33
53.4823,28
53.6681,28
53.8538,23
54.0396,27
54.2253,34
54.4111,35
54.5969,26
54.7826,32
54.9684,34
55.1541,29
55.3399,18
55.5256,23
55.7114,25
55.8971,32
56.0829,39
56.2687,40
56.4544,24
56.6402,31
56.8259,32
57.0117,18
57.1974,21
57.3832,36
57.5689,26
57.7547,26
57.9405,19
58.1262,33
58.3120,37
58.4977,23
58.6835,20
58.8692,35
59.0550,31
59.2408,29
59.4265,30
59.6123,28
59.7980,27
59.9838,22
60.0024,27