File: notebooks/data/xrd_data/ML_20220718_19_SJD_4_LaB6-2min.uxd
; (content of file Y:\Sam\Apurva-07-20-2022\puck4\ML_20220718_19_SJD_0_LaB6-2min.raw)
_FILEVERSION = 3
_SAMPLE = ML_20220718_19_SJD_0_LaB6-2min
_+SAMPLE =
_SITE = USA
_USER = Administrator
_GONIOMETER_CODE = 20
; Goniometer : D8 theta/2theta, stage : Unknown
_ATTACHMENTS_CODE = 0
_GONIOMETER_RADIUS = 200.5
_FIXED_DIVSLIT = 0.6
_FIXED_SAMPLESLIT = 0
_SOLLER_SLITS = 2
_FIXED_DETSLIT = 9.55
_MONOCHROMATOR = 0
; Incident beam monochromator : None
_SOLLER_SLITS_2 = N
_THIN_FILM = N
_BETA_FILTER = Y
_FIXED_ANTISLIT = 5.89
_ANALYZER_CODE = 0
; Received beam analyzer : None
_DATEMEASURED = "26-Jul-2022 09:39:54"
_WL_UNIT = A
_WL1 = 1.5406
_WL2 = 1.54439
_WL3 = 1.39222
_WLRATIO = 0.5
_ANODE = Cu
_V4_INF_CREATOR = XRDWizard
_V4_INF_CREATOR_VERSION = V2.9.0.22
_V4_INF_WIZARD_VERSION = V2.9.0.22
_V4_INF_WIZARD_ADDINS = V2.9.0.22
_V4_INF_WIZARD_DOCTYPE = XRD
_V4_INF_OSUSER = McQueenLab
_V4_INF_USER = Administrator
_V4_INF_SITE = USA
_V4_INF_SAMPLEID = ML_20220718_19_SJD_0_LaB6-2min

; Data for range 1
_DRIVE = COUPLED
_STEPTIME = 5.64
_STEPSIZE = 0.0185756
_STEPMODE = C
_START = 5
_THETA = 2.5
_2THETA = 5
_KHI = 0
_PHI = 0
_X = 0
_Y = 0
_Z = 0
_DETECTOR = 5
; Detector type : Unknown
_DETECTORSLIT = unkn
_AUX1 = 0
_AUX2 = 0
_AUX3 = 0
_TIMESTARTED = 14
_TEMP_RATE = -1
_TEMP_DELAY = -1
_KV = 40
_MA = 40
_RANGE_WL = 1.5406
_3DPLANE = 0
_V4_ADDITIONALDETECTOR = 257
_V4_PSD2THETA = 3.4228
_V4_PSDCHANNEL1 = 0
_V4_PSDAPERTURE = 12.68
_V4_PSDTYPE = 5
_V4_PSDFIXED = 0
_V4_COUNTERS_MASK = 4096
_V4_DRIVES_MASK = 0
_V4_ENCODERS_MASK = 0
_2THETACOUNTS = 1
; 2THETA  PSD
   5.0000        146
   5.1858        133
   5.3715        129
   5.5573        130
   5.7430         83
   5.9288        126
   6.1145         94
   6.3003         99
   6.4860         97
   6.6718         89
   6.8576         85
   7.0433         77
   7.2291         74
   7.4148         87
   7.6006         86
   7.7863         77
   7.9721         85
   8.1579         99
   8.3436         88
   8.5294        117
   8.7151         94
   8.9009         96
   9.0866        110
   9.2724        115
   9.4581        110
   9.6439        110
   9.8297        130
  10.0154        105
  10.2012        110
  10.3869        118
  10.5727        119
  10.7584        116
  10.9442        124
  11.1299        112
  11.3157        118
  11.5015         97
  11.6872        105
  11.8730        114
  12.0587        119
  12.2445        104
  12.4302        102
  12.6160        124
  12.8018        100
  12.9875        104
  13.1733         98
  13.3590         83
  13.5448        102
  13.7305         96
  13.9163         88
  14.1020         88
  14.2878         95
  14.4736         77
  14.6593         80
  14.8451         88
  15.0308         72
  15.2166         67
  15.4023         84
  15.5881         72
  15.7738         92
  15.9596         81
  16.1454         83
  16.3311         96
  16.5169         88
  16.7026         93
  16.8884         77
  17.0741         84
  17.2599         82
  17.4457         86
  17.6314         66
  17.8172         76
  18.0029         85
  18.1887         71
  18.3744         97
  18.5602         66
  18.7459         91
  18.9317         79
  19.1175         96
  19.3032         78
  19.4890         90
  19.6747         94
  19.8605         89
  20.0462         85
  20.2320         83
  20.4177        107
  20.6035         85
  20.7893         89
  20.9750         89
  21.1608        117
  21.3465        261
  21.5323        102
  21.7180        108
  21.9038         89
  22.0896        103
  22.2753        100
  22.4611         88
  22.6468         84
  22.8326        100
  23.0183        126
  23.2041        110
  23.3898        102
  23.5756        104
  23.7614         96
  23.9471        101
  24.1329         88
  24.3186        118
  24.5044        101
  24.6901        105
  24.8759         89
  25.0616         97
  25.2474        100
  25.4332         83
  25.6189         89
  25.8047         82
  25.9904        100
  26.1762        103
  26.3619         85
  26.5477         94
  26.7335         97
  26.9192         96
  27.1050        106
  27.2907        105
  27.4765         96
  27.6622        102
  27.8480         85
  28.0337         91
  28.2195         99
  28.4053         84
  28.5910         75
  28.7768         81
  28.9625         95
  29.1483         85
  29.3340         80
  29.5198         86
  29.7055         87
  29.8913         78
  30.0771         81
  30.2628         80
  30.4486        118
  30.6343         72
  30.8201         75
  31.0058         68
  31.1916         70
  31.3774         82
  31.5631         82
  31.7489         63
  31.9346         65
  32.1204         74
  32.3061         74
  32.4919         88
  32.6776         63
  32.8634         64
  33.0492         51
  33.2349         58
  33.4207         65
  33.6064         47
  33.7922         54
  33.9779         52
  34.1637         48
  34.3494         51
  34.5352         48
  34.7210         82
  34.9067         70
  35.0925         56
  35.2782         34
  35.4640         53
  35.6497         55
  35.8355         39
  36.0213         43
  36.2070         54
  36.3928         47
  36.5785         43
  36.7643         34
  36.9500         43
  37.1358         51
  37.3215         46
  37.5073         61
  37.6931         48
  37.8788         36
  38.0646         41
  38.2503         36
  38.4361         44
  38.6218         41
  38.8076         43
  38.9933         46
  39.1791         39
  39.3649         49
  39.5506         49
  39.7364         25
  39.9221         43
  40.1079         28
  40.2936         34
  40.4794         29
  40.6652         43
  40.8509         40
  41.0367         51
  41.2224         32
  41.4082         37
  41.5939         45
  41.7797         41
  41.9654         38
  42.1512         34
  42.3370         34
  42.5227         39
  42.7085         33
  42.8942         40
  43.0800         31
  43.2657         42
  43.4515         43
  43.6372         48
  43.8230         33
  44.0088         26
  44.1945         39
  44.3803         33
  44.5660         37
  44.7518         41
  44.9375         31
  45.1233         30
  45.3091         37
  45.4948         32
  45.6806         38
  45.8663         35
  46.0521         35
  46.2378         36
  46.4236         44
  46.6093         34
  46.7951         42
  46.9809         38
  47.1666         31
  47.3524         39
  47.5381         32
  47.7239         32
  47.9096         29
  48.0954         28
  48.2811         28
  48.4669         30
  48.6527         30
  48.8384         34
  49.0242         42
  49.2099         40
  49.3957         40
  49.5814         32
  49.7672         38
  49.9530         31
  50.1387         32
  50.3245         27
  50.5102         38
  50.6960         37
  50.8817         28
  51.0675         23
  51.2532         20
  51.4390         46
  51.6248         30
  51.8105         42
  51.9963         32
  52.1820         24
  52.3678         36
  52.5535         38
  52.7393         27
  52.9250         33
  53.1108         20
  53.2966         27
  53.4823         25
  53.6681         38
  53.8538         28
  54.0396         25
  54.2253         34
  54.4111         27
  54.5969         23
  54.7826         32
  54.9684         38
  55.1541         31
  55.3399         25
  55.5256         24
  55.7114         26
  55.8971         21
  56.0829         49
  56.2687         32
  56.4544         33
  56.6402         29
  56.8259         25
  57.0117         31
  57.1974         37
  57.3832         26
  57.5689         23
  57.7547         36
  57.9405         23
  58.1262         24
  58.3120         32
  58.4977         22
  58.6835         19
  58.8692         31
  59.0550         39
  59.2408         31
  59.4265         29
  59.6123         33
  59.7980         26
  59.9838         10
  60.0024         24