File: notebooks/data/xrd_data/ML_20220718_8_SJD_4_LaB6-2min.csv
;,2THETA,
5.0000,129
5.1858,131
5.3715,123
5.5573,96
5.7430,99
5.9288,106
6.1145,114
6.3003,99
6.4860,97
6.6718,98
6.8576,85
7.0433,81
7.2291,88
7.4148,87
7.6006,82
7.7863,82
7.9721,88
8.1579,111
8.3436,91
8.5294,93
8.7151,97
8.9009,89
9.0866,92
9.2724,116
9.4581,121
9.6439,124
9.8297,138
10.0154,137
10.2012,120
10.3869,126
10.5727,109
10.7584,108
10.9442,132
11.1299,131
11.3157,105
11.5015,125
11.6872,135
11.8730,103
12.0587,120
12.2445,94
12.4302,121
12.6160,120
12.8018,95
12.9875,91
13.1733,97
13.3590,99
13.5448,108
13.7305,79
13.9163,87
14.1020,111
14.2878,91
14.4736,74
14.6593,88
14.8451,80
15.0308,79
15.2166,73
15.4023,80
15.5881,80
15.7738,104
15.9596,71
16.1454,81
16.3311,92
16.5169,84
16.7026,85
16.8884,76
17.0741,80
17.2599,84
17.4457,94
17.6314,76
17.8172,88
18.0029,84
18.1887,93
18.3744,88
18.5602,80
18.7459,84
18.9317,83
19.1175,92
19.3032,86
19.4890,88
19.6747,84
19.8605,78
20.0462,71
20.2320,85
20.4177,88
20.6035,90
20.7893,82
20.9750,102
21.1608,121
21.3465,246
21.5323,101
21.7180,107
21.9038,88
22.0896,96
22.2753,95
22.4611,83
22.6468,88
22.8326,97
23.0183,85
23.2041,103
23.3898,101
23.5756,109
23.7614,91
23.9471,89
24.1329,100
24.3186,110
24.5044,107
24.6901,115
24.8759,104
25.0616,95
25.2474,97
25.4332,98
25.6189,101
25.8047,103
25.9904,87
26.1762,74
26.3619,83
26.5477,87
26.7335,82
26.9192,111
27.1050,108
27.2907,85
27.4765,76
27.6622,85
27.8480,88
28.0337,78
28.2195,90
28.4053,77
28.5910,87
28.7768,86
28.9625,88
29.1483,90
29.3340,80
29.5198,99
29.7055,73
29.8913,82
30.0771,75
30.2628,82
30.4486,135
30.6343,65
30.8201,73
31.0058,70
31.1916,69
31.3774,70
31.5631,78
31.7489,81
31.9346,62
32.1204,51
32.3061,67
32.4919,92
32.6776,54
32.8634,51
33.0492,54
33.2349,67
33.4207,65
33.6064,50
33.7922,63
33.9779,50
34.1637,50
34.3494,64
34.5352,57
34.7210,73
34.9067,65
35.0925,42
35.2782,52
35.4640,41
35.6497,62
35.8355,50
36.0213,53
36.2070,48
36.3928,47
36.5785,40
36.7643,45
36.9500,47
37.1358,39
37.3215,55
37.5073,70
37.6931,36
37.8788,36
38.0646,35
38.2503,44
38.4361,42
38.6218,33
38.8076,44
38.9933,46
39.1791,25
39.3649,50
39.5506,48
39.7364,40
39.9221,44
40.1079,33
40.2936,41
40.4794,41
40.6652,33
40.8509,38
41.0367,37
41.2224,43
41.4082,41
41.5939,32
41.7797,39
41.9654,40
42.1512,38
42.3370,45
42.5227,30
42.7085,39
42.8942,44
43.0800,40
43.2657,36
43.4515,54
43.6372,45
43.8230,29
44.0088,32
44.1945,37
44.3803,36
44.5660,33
44.7518,44
44.9375,35
45.1233,28
45.3091,31
45.4948,31
45.6806,28
45.8663,27
46.0521,40
46.2378,22
46.4236,29
46.6093,35
46.7951,38
46.9809,38
47.1666,32
47.3524,23
47.5381,30
47.7239,33
47.9096,24
48.0954,33
48.2811,29
48.4669,26
48.6527,34
48.8384,32
49.0242,43
49.2099,19
49.3957,20
49.5814,24
49.7672,30
49.9530,23
50.1387,34
50.3245,30
50.5102,22
50.6960,32
50.8817,36
51.0675,28
51.2532,29
51.4390,35
51.6248,28
51.8105,38
51.9963,28
52.1820,26
52.3678,24
52.5535,29
52.7393,25
52.9250,17
53.1108,29
53.2966,25
53.4823,34
53.6681,24
53.8538,35
54.0396,40
54.2253,28
54.4111,23
54.5969,30
54.7826,26
54.9684,32
55.1541,23
55.3399,21
55.5256,27
55.7114,32
55.8971,23
56.0829,26
56.2687,25
56.4544,31
56.6402,26
56.8259,26
57.0117,25
57.1974,31
57.3832,27
57.5689,28
57.7547,27
57.9405,26
58.1262,34
58.3120,24
58.4977,30
58.6835,30
58.8692,35
59.0550,33
59.2408,26
59.4265,31
59.6123,26
59.7980,27
59.9838,24
60.0024,24