File: notebooks/data/xrd_data/ML_20220720_32_SJD_4_LaB6-1min.csv
;,2THETA,
5.0000,105
5.1858,89
5.3715,97
5.5573,93
5.7430,68
5.9288,77
6.1145,58
6.3003,60
6.4860,72
6.6718,55
6.8576,68
7.0433,52
7.2291,57
7.4148,74
7.6006,58
7.7863,58
7.9721,64
8.1579,83
8.3436,60
8.5294,76
8.7151,62
8.9009,79
9.0866,78
9.2724,63
9.4581,67
9.6439,74
9.8297,101
10.0154,86
10.2012,84
10.3869,88
10.5727,109
10.7584,81
10.9442,91
11.1299,80
11.3157,96
11.5015,73
11.6872,105
11.8730,78
12.0587,72
12.2445,88
12.4302,82
12.6160,88
12.8018,70
12.9875,63
13.1733,79
13.3590,62
13.5448,76
13.7305,79
13.9163,68
14.1020,54
14.2878,75
14.4736,58
14.6593,57
14.8451,70
15.0308,60
15.2166,63
15.4023,58
15.5881,59
15.7738,66
15.9596,61
16.1454,56
16.3311,58
16.5169,46
16.7026,67
16.8884,45
17.0741,65
17.2599,44
17.4457,69
17.6314,54
17.8172,54
18.0029,72
18.1887,49
18.3744,56
18.5602,63
18.7459,61
18.9317,64
19.1175,59
19.3032,66
19.4890,72
19.6747,75
19.8605,73
20.0462,62
20.2320,65
20.4177,68
20.6035,77
20.7893,63
20.9750,79
21.1608,95
21.3465,188
21.5323,93
21.7180,78
21.9038,80
22.0896,82
22.2753,78
22.4611,88
22.6468,70
22.8326,81
23.0183,67
23.2041,77
23.3898,91
23.5756,75
23.7614,59
23.9471,77
24.1329,75
24.3186,73
24.5044,82
24.6901,78
24.8759,82
25.0616,71
25.2474,79
25.4332,56
25.6189,67
25.8047,79
25.9904,50
26.1762,55
26.3619,61
26.5477,73
26.7335,62
26.9192,76
27.1050,77
27.2907,85
27.4765,59
27.6622,59
27.8480,65
28.0337,58
28.2195,63
28.4053,67
28.5910,64
28.7768,60
28.9625,64
29.1483,51
29.3340,61
29.5198,61
29.7055,56
29.8913,61
30.0771,57
30.2628,82
30.4486,110
30.6343,52
30.8201,53
31.0058,50
31.1916,50
31.3774,59
31.5631,44
31.7489,48
31.9346,61
32.1204,38
32.3061,43
32.4919,45
32.6776,43
32.8634,40
33.0492,53
33.2349,42
33.4207,37
33.6064,40
33.7922,45
33.9779,32
34.1637,40
34.3494,45
34.5352,40
34.7210,53
34.9067,41
35.0925,41
35.2782,33
35.4640,40
35.6497,33
35.8355,28
36.0213,34
36.2070,29
36.3928,43
36.5785,33
36.7643,40
36.9500,33
37.1358,29
37.3215,41
37.5073,35
37.6931,29
37.8788,42
38.0646,30
38.2503,31
38.4361,31
38.6218,41
38.8076,40
38.9933,23
39.1791,29
39.3649,37
39.5506,25
39.7364,30
39.9221,25
40.1079,17
40.2936,32
40.4794,25
40.6652,33
40.8509,19
41.0367,29
41.2224,31
41.4082,26
41.5939,27
41.7797,29
41.9654,35
42.1512,23
42.3370,35
42.5227,27
42.7085,30
42.8942,33
43.0800,26
43.2657,32
43.4515,32
43.6372,36
43.8230,27
44.0088,25
44.1945,38
44.3803,24
44.5660,33
44.7518,28
44.9375,34
45.1233,28
45.3091,21
45.4948,23
45.6806,24
45.8663,16
46.0521,19
46.2378,22
46.4236,28
46.6093,23
46.7951,25
46.9809,22
47.1666,27
47.3524,19
47.5381,31
47.7239,19
47.9096,21
48.0954,19
48.2811,27
48.4669,26
48.6527,24
48.8384,24
49.0242,35
49.2099,16
49.3957,26
49.5814,19
49.7672,19
49.9530,22
50.1387,22
50.3245,27
50.5102,27
50.6960,23
50.8817,17
51.0675,31
51.2532,22
51.4390,14
51.6248,15
51.8105,23
51.9963,23
52.1820,28
52.3678,26
52.5535,27
52.7393,21
52.9250,26
53.1108,18
53.2966,16
53.4823,22
53.6681,22
53.8538,14
54.0396,15
54.2253,12
54.4111,23
54.5969,19
54.7826,12
54.9684,17
55.1541,17
55.3399,17
55.5256,26
55.7114,19
55.8971,16
56.0829,22
56.2687,25
56.4544,28
56.6402,21
56.8259,15
57.0117,23
57.1974,25
57.3832,26
57.5689,14
57.7547,25
57.9405,22
58.1262,26
58.3120,17
58.4977,22
58.6835,19
58.8692,22
59.0550,22
59.2408,24
59.4265,21
59.6123,22
59.7980,23
59.9838,31
60.0024,29