File: notebooks/data/xrd_data/ML_20220718_49_SJD_4_LaB6-2min.uxd
; (content of file Y:\Sam\Apurva-07-20-2022\puck4\ML_20220718_49_SJD_4_LaB6-2min.raw)
_FILEVERSION = 3
_SAMPLE = ML_20220718_49_SJD_4_LaB6-2min
_+SAMPLE =
_SITE = USA
_USER = Administrator
_GONIOMETER_CODE = 20
; Goniometer : D8 theta/2theta, stage : Unknown
_ATTACHMENTS_CODE = 0
_GONIOMETER_RADIUS = 200.5
_FIXED_DIVSLIT = 0.6
_FIXED_SAMPLESLIT = 0
_SOLLER_SLITS = 2
_FIXED_DETSLIT = 9.55
_MONOCHROMATOR = 0
; Incident beam monochromator : None
_SOLLER_SLITS_2 = N
_THIN_FILM = N
_BETA_FILTER = Y
_FIXED_ANTISLIT = 5.89
_ANALYZER_CODE = 0
; Received beam analyzer : None
_DATEMEASURED = "26-Jul-2022 12:25:15"
_WL_UNIT = A
_WL1 = 1.5406
_WL2 = 1.54439
_WL3 = 1.39222
_WLRATIO = 0.5
_ANODE = Cu
_V4_INF_CREATOR = XRDWizard
_V4_INF_CREATOR_VERSION = V2.9.0.22
_V4_INF_WIZARD_VERSION = V2.9.0.22
_V4_INF_WIZARD_ADDINS = V2.9.0.22
_V4_INF_WIZARD_DOCTYPE = XRD
_V4_INF_OSUSER = McQueenLab
_V4_INF_USER = Administrator
_V4_INF_SITE = USA
_V4_INF_SAMPLEID = ML_20220718_49_SJD_4_LaB6-2min

; Data for range 1
_DRIVE = COUPLED
_STEPTIME = 5.64
_STEPSIZE = 0.0185756
_STEPMODE = C
_START = 5
_THETA = 2.5
_2THETA = 5
_KHI = 0
_PHI = 0
_X = 0
_Y = 0
_Z = 0
_DETECTOR = 5
; Detector type : Unknown
_DETECTORSLIT = unkn
_AUX1 = 0
_AUX2 = 0
_AUX3 = 0
_TIMESTARTED = 15
_TEMP_RATE = -1
_TEMP_DELAY = -1
_KV = 40
_MA = 40
_RANGE_WL = 1.5406
_3DPLANE = 0
_V4_ADDITIONALDETECTOR = 257
_V4_PSD2THETA = 3.373
_V4_PSDCHANNEL1 = 0
_V4_PSDAPERTURE = 12.68
_V4_PSDTYPE = 5
_V4_PSDFIXED = 0
_V4_COUNTERS_MASK = 4096
_V4_DRIVES_MASK = 0
_V4_ENCODERS_MASK = 0
_2THETACOUNTS = 1
; 2THETA  PSD
   5.0000        123
   5.1858        132
   5.3715        117
   5.5573        129
   5.7430         85
   5.9288        119
   6.1145         93
   6.3003         96
   6.4860         75
   6.6718        102
   6.8576         75
   7.0433         79
   7.2291         76
   7.4148         88
   7.6006         80
   7.7863         92
   7.9721         92
   8.1579         92
   8.3436        108
   8.5294        101
   8.7151        113
   8.9009        116
   9.0866         99
   9.2724        125
   9.4581        136
   9.6439        113
   9.8297        125
  10.0154        107
  10.2012        119
  10.3869        132
  10.5727        110
  10.7584        122
  10.9442        106
  11.1299        118
  11.3157        115
  11.5015        101
  11.6872        121
  11.8730        119
  12.0587        116
  12.2445        106
  12.4302        103
  12.6160         88
  12.8018        104
  12.9875         90
  13.1733         89
  13.3590        106
  13.5448         98
  13.7305        111
  13.9163        101
  14.1020        110
  14.2878         75
  14.4736        100
  14.6593         70
  14.8451         87
  15.0308         74
  15.2166         91
  15.4023         78
  15.5881         80
  15.7738         86
  15.9596         83
  16.1454         78
  16.3311         63
  16.5169         69
  16.7026         87
  16.8884        102
  17.0741         79
  17.2599         74
  17.4457         83
  17.6314         83
  17.8172         75
  18.0029         85
  18.1887         80
  18.3744         83
  18.5602         86
  18.7459         89
  18.9317         81
  19.1175         81
  19.3032         81
  19.4890         89
  19.6747         79
  19.8605         83
  20.0462         83
  20.2320         88
  20.4177         91
  20.6035        100
  20.7893         99
  20.9750         88
  21.1608        126
  21.3465        233
  21.5323        107
  21.7180        106
  21.9038        103
  22.0896         91
  22.2753         94
  22.4611        103
  22.6468         91
  22.8326         77
  23.0183         97
  23.2041        107
  23.3898         78
  23.5756         89
  23.7614         89
  23.9471        100
  24.1329        107
  24.3186        127
  24.5044         95
  24.6901        109
  24.8759         80
  25.0616         97
  25.2474        112
  25.4332        102
  25.6189         78
  25.8047         98
  25.9904        104
  26.1762        115
  26.3619        102
  26.5477         75
  26.7335         68
  26.9192        111
  27.1050         93
  27.2907         99
  27.4765         83
  27.6622         98
  27.8480         80
  28.0337         79
  28.2195         83
  28.4053         85
  28.5910         80
  28.7768         68
  28.9625         76
  29.1483         61
  29.3340         75
  29.5198         53
  29.7055         79
  29.8913         70
  30.0771         72
  30.2628         76
  30.4486        123
  30.6343         72
  30.8201         74
  31.0058         73
  31.1916         86
  31.3774         78
  31.5631         79
  31.7489         68
  31.9346         66
  32.1204         72
  32.3061         82
  32.4919         75
  32.6776         62
  32.8634         57
  33.0492         60
  33.2349         56
  33.4207         63
  33.6064         71
  33.7922         55
  33.9779         72
  34.1637         50
  34.3494         58
  34.5352         57
  34.7210         60
  34.9067         63
  35.0925         62
  35.2782         43
  35.4640         54
  35.6497         57
  35.8355         55
  36.0213         46
  36.2070         58
  36.3928         58
  36.5785         50
  36.7643         48
  36.9500         43
  37.1358         36
  37.3215         43
  37.5073         69
  37.6931         47
  37.8788         40
  38.0646         32
  38.2503         47
  38.4361         48
  38.6218         28
  38.8076         40
  38.9933         31
  39.1791         38
  39.3649         32
  39.5506         34
  39.7364         38
  39.9221         32
  40.1079         44
  40.2936         39
  40.4794         43
  40.6652         36
  40.8509         44
  41.0367         43
  41.2224         54
  41.4082         39
  41.5939         30
  41.7797         33
  41.9654         32
  42.1512         37
  42.3370         33
  42.5227         33
  42.7085         34
  42.8942         30
  43.0800         35
  43.2657         36
  43.4515         41
  43.6372         41
  43.8230         31
  44.0088         32
  44.1945         32
  44.3803         32
  44.5660         38
  44.7518         41
  44.9375         41
  45.1233         28
  45.3091         38
  45.4948         35
  45.6806         26
  45.8663         29
  46.0521         30
  46.2378         37
  46.4236         39
  46.6093         28
  46.7951         39
  46.9809         32
  47.1666         45
  47.3524         42
  47.5381         45
  47.7239         26
  47.9096         38
  48.0954         27
  48.2811         34
  48.4669         31
  48.6527         35
  48.8384         41
  49.0242         43
  49.2099         24
  49.3957         35
  49.5814         22
  49.7672         25
  49.9530         23
  50.1387         30
  50.3245         35
  50.5102         29
  50.6960         31
  50.8817         25
  51.0675         30
  51.2532         31
  51.4390         32
  51.6248         34
  51.8105         38
  51.9963         34
  52.1820         28
  52.3678         18
  52.5535         24
  52.7393         34
  52.9250         28
  53.1108         24
  53.2966         25
  53.4823         24
  53.6681         29
  53.8538         23
  54.0396         36
  54.2253         30
  54.4111         29
  54.5969         25
  54.7826         28
  54.9684         33
  55.1541         26
  55.3399         27
  55.5256         23
  55.7114         30
  55.8971         23
  56.0829         34
  56.2687         34
  56.4544         29
  56.6402         26
  56.8259         27
  57.0117         32
  57.1974         35
  57.3832         38
  57.5689         26
  57.7547         34
  57.9405         20
  58.1262         21
  58.3120         29
  58.4977         25
  58.6835         21
  58.8692         23
  59.0550         32
  59.2408         25
  59.4265         26
  59.6123         31
  59.7980         27
  59.9838         38
  60.0024         24