File: notebooks/data/xrd_data/ML_20220718_57_SJD_4_LaB6-2min.csv
;,2THETA,
5.0000,139
5.1858,135
5.3715,105
5.5573,103
5.7430,120
5.9288,83
6.1145,98
6.3003,85
6.4860,97
6.6718,72
6.8576,94
7.0433,69
7.2291,93
7.4148,79
7.6006,88
7.7863,70
7.9721,86
8.1579,78
8.3436,70
8.5294,106
8.7151,95
8.9009,100
9.0866,119
9.2724,110
9.4581,130
9.6439,98
9.8297,116
10.0154,115
10.2012,131
10.3869,115
10.5727,123
10.7584,119
10.9442,109
11.1299,112
11.3157,111
11.5015,104
11.6872,105
11.8730,107
12.0587,108
12.2445,101
12.4302,112
12.6160,102
12.8018,86
12.9875,94
13.1733,106
13.3590,94
13.5448,97
13.7305,91
13.9163,93
14.1020,87
14.2878,82
14.4736,74
14.6593,67
14.8451,89
15.0308,86
15.2166,75
15.4023,66
15.5881,73
15.7738,70
15.9596,91
16.1454,81
16.3311,80
16.5169,70
16.7026,83
16.8884,75
17.0741,65
17.2599,78
17.4457,80
17.6314,77
17.8172,77
18.0029,77
18.1887,82
18.3744,88
18.5602,86
18.7459,82
18.9317,90
19.1175,93
19.3032,77
19.4890,81
19.6747,84
19.8605,84
20.0462,87
20.2320,94
20.4177,95
20.6035,86
20.7893,82
20.9750,88
21.1608,116
21.3465,256
21.5323,93
21.7180,104
21.9038,107
22.0896,85
22.2753,116
22.4611,96
22.6468,124
22.8326,81
23.0183,125
23.2041,98
23.3898,100
23.5756,83
23.7614,112
23.9471,100
24.1329,93
24.3186,114
24.5044,114
24.6901,98
24.8759,108
25.0616,88
25.2474,97
25.4332,92
25.6189,88
25.8047,93
25.9904,96
26.1762,112
26.3619,91
26.5477,92
26.7335,109
26.9192,96
27.1050,105
27.2907,117
27.4765,91
27.6622,85
27.8480,89
28.0337,75
28.2195,87
28.4053,86
28.5910,87
28.7768,86
28.9625,99
29.1483,75
29.3340,76
29.5198,67
29.7055,94
29.8913,79
30.0771,79
30.2628,68
30.4486,108
30.6343,71
30.8201,85
31.0058,73
31.1916,72
31.3774,69
31.5631,56
31.7489,66
31.9346,66
32.1204,62
32.3061,95
32.4919,77
32.6776,75
32.8634,56
33.0492,59
33.2349,61
33.4207,59
33.6064,51
33.7922,57
33.9779,62
34.1637,65
34.3494,51
34.5352,45
34.7210,78
34.9067,67
35.0925,49
35.2782,56
35.4640,52
35.6497,47
35.8355,44
36.0213,49
36.2070,51
36.3928,41
36.5785,41
36.7643,52
36.9500,38
37.1358,48
37.3215,39
37.5073,57
37.6931,47
37.8788,37
38.0646,34
38.2503,45
38.4361,31
38.6218,39
38.8076,36
38.9933,36
39.1791,43
39.3649,30
39.5506,28
39.7364,41
39.9221,34
40.1079,40
40.2936,40
40.4794,43
40.6652,50
40.8509,50
41.0367,36
41.2224,28
41.4082,29
41.5939,33
41.7797,22
41.9654,41
42.1512,35
42.3370,35
42.5227,48
42.7085,41
42.8942,41
43.0800,35
43.2657,39
43.4515,49
43.6372,55
43.8230,25
44.0088,38
44.1945,38
44.3803,31
44.5660,34
44.7518,29
44.9375,31
45.1233,33
45.3091,30
45.4948,31
45.6806,36
45.8663,40
46.0521,27
46.2378,36
46.4236,30
46.6093,39
46.7951,31
46.9809,22
47.1666,33
47.3524,28
47.5381,29
47.7239,35
47.9096,30
48.0954,34
48.2811,35
48.4669,30
48.6527,17
48.8384,25
49.0242,50
49.2099,27
49.3957,34
49.5814,26
49.7672,35
49.9530,37
50.1387,35
50.3245,29
50.5102,28
50.6960,23
50.8817,40
51.0675,30
51.2532,33
51.4390,32
51.6248,22
51.8105,30
51.9963,31
52.1820,26
52.3678,30
52.5535,29
52.7393,25
52.9250,26
53.1108,18
53.2966,36
53.4823,22
53.6681,28
53.8538,26
54.0396,33
54.2253,45
54.4111,18
54.5969,22
54.7826,31
54.9684,32
55.1541,28
55.3399,28
55.5256,17
55.7114,30
55.8971,27
56.0829,30
56.2687,36
56.4544,26
56.6402,34
56.8259,28
57.0117,24
57.1974,34
57.3832,27
57.5689,26
57.7547,25
57.9405,32
58.1262,21
58.3120,33
58.4977,44
58.6835,24
58.8692,36
59.0550,23
59.2408,29
59.4265,27
59.6123,28
59.7980,31
59.9838,25
60.0024,18