File: notebooks/data/xrd_data/ML_20220718_42_SJD_4_LaB6-2min.csv
;,2THETA,
5.0000,120
5.1858,127
5.3715,123
5.5573,105
5.7430,81
5.9288,83
6.1145,94
6.3003,94
6.4860,81
6.6718,93
6.8576,84
7.0433,75
7.2291,71
7.4148,87
7.6006,100
7.7863,63
7.9721,93
8.1579,94
8.3436,87
8.5294,100
8.7151,93
8.9009,104
9.0866,114
9.2724,118
9.4581,103
9.6439,102
9.8297,130
10.0154,94
10.2012,120
10.3869,108
10.5727,121
10.7584,126
10.9442,120
11.1299,125
11.3157,105
11.5015,120
11.6872,123
11.8730,110
12.0587,108
12.2445,96
12.4302,119
12.6160,96
12.8018,119
12.9875,96
13.1733,100
13.3590,76
13.5448,125
13.7305,91
13.9163,84
14.1020,88
14.2878,86
14.4736,90
14.6593,71
14.8451,93
15.0308,80
15.2166,96
15.4023,74
15.5881,68
15.7738,83
15.9596,70
16.1454,83
16.3311,83
16.5169,80
16.7026,78
16.8884,65
17.0741,99
17.2599,77
17.4457,93
17.6314,74
17.8172,71
18.0029,86
18.1887,75
18.3744,93
18.5602,77
18.7459,72
18.9317,91
19.1175,74
19.3032,75
19.4890,105
19.6747,72
19.8605,82
20.0462,90
20.2320,94
20.4177,88
20.6035,95
20.7893,95
20.9750,84
21.1608,119
21.3465,219
21.5323,93
21.7180,88
21.9038,92
22.0896,90
22.2753,92
22.4611,80
22.6468,109
22.8326,77
23.0183,110
23.2041,87
23.3898,95
23.5756,97
23.7614,135
23.9471,105
24.1329,92
24.3186,107
24.5044,91
24.6901,110
24.8759,82
25.0616,102
25.2474,102
25.4332,110
25.6189,91
25.8047,86
25.9904,113
26.1762,103
26.3619,105
26.5477,97
26.7335,90
26.9192,95
27.1050,86
27.2907,99
27.4765,86
27.6622,86
27.8480,88
28.0337,76
28.2195,95
28.4053,86
28.5910,80
28.7768,73
28.9625,82
29.1483,80
29.3340,86
29.5198,80
29.7055,93
29.8913,76
30.0771,80
30.2628,86
30.4486,126
30.6343,73
30.8201,61
31.0058,84
31.1916,75
31.3774,54
31.5631,78
31.7489,48
31.9346,72
32.1204,59
32.3061,69
32.4919,70
32.6776,45
32.8634,43
33.0492,58
33.2349,54
33.4207,46
33.6064,68
33.7922,79
33.9779,49
34.1637,46
34.3494,62
34.5352,67
34.7210,57
34.9067,53
35.0925,56
35.2782,55
35.4640,45
35.6497,53
35.8355,43
36.0213,47
36.2070,52
36.3928,56
36.5785,49
36.7643,49
36.9500,76
37.1358,48
37.3215,52
37.5073,53
37.6931,47
37.8788,44
38.0646,52
38.2503,39
38.4361,37
38.6218,42
38.8076,56
38.9933,51
39.1791,38
39.3649,42
39.5506,34
39.7364,35
39.9221,42
40.1079,29
40.2936,42
40.4794,29
40.6652,43
40.8509,36
41.0367,44
41.2224,36
41.4082,46
41.5939,45
41.7797,26
41.9654,43
42.1512,30
42.3370,40
42.5227,34
42.7085,43
42.8942,30
43.0800,42
43.2657,41
43.4515,52
43.6372,40
43.8230,42
44.0088,36
44.1945,34
44.3803,39
44.5660,32
44.7518,41
44.9375,30
45.1233,46
45.3091,32
45.4948,33
45.6806,28
45.8663,35
46.0521,30
46.2378,38
46.4236,30
46.6093,40
46.7951,37
46.9809,31
47.1666,24
47.3524,28
47.5381,36
47.7239,30
47.9096,27
48.0954,24
48.2811,23
48.4669,39
48.6527,34
48.8384,27
49.0242,36
49.2099,24
49.3957,40
49.5814,30
49.7672,15
49.9530,25
50.1387,33
50.3245,22
50.5102,29
50.6960,29
50.8817,37
51.0675,32
51.2532,41
51.4390,29
51.6248,32
51.8105,37
51.9963,25
52.1820,31
52.3678,37
52.5535,30
52.7393,29
52.9250,24
53.1108,26
53.2966,32
53.4823,20
53.6681,23
53.8538,41
54.0396,34
54.2253,29
54.4111,29
54.5969,30
54.7826,22
54.9684,26
55.1541,23
55.3399,28
55.5256,31
55.7114,24
55.8971,28
56.0829,29
56.2687,37
56.4544,28
56.6402,38
56.8259,21
57.0117,32
57.1974,26
57.3832,28
57.5689,28
57.7547,23
57.9405,36
58.1262,26
58.3120,31
58.4977,33
58.6835,32
58.8692,29
59.0550,34
59.2408,17
59.4265,28
59.6123,24
59.7980,22
59.9838,30
60.0024,28