File: notebooks/data/xrd_data/ML_20220718_40_SJD_4_LaB6-2min.uxd
; (content of file Y:\Sam\Apurva-07-20-2022\puck4\ML_20220718_40_SJD_4_LaB6-2min.raw)
_FILEVERSION = 3
_SAMPLE = ML_20220718_40_SJD_4_LaB6-2min
_+SAMPLE =
_SITE = USA
_USER = Administrator
_GONIOMETER_CODE = 20
; Goniometer : D8 theta/2theta, stage : Unknown
_ATTACHMENTS_CODE = 0
_GONIOMETER_RADIUS = 200.5
_FIXED_DIVSLIT = 0.6
_FIXED_SAMPLESLIT = 0
_SOLLER_SLITS = 2
_FIXED_DETSLIT = 9.55
_MONOCHROMATOR = 0
; Incident beam monochromator : None
_SOLLER_SLITS_2 = N
_THIN_FILM = N
_BETA_FILTER = Y
_FIXED_ANTISLIT = 5.89
_ANALYZER_CODE = 0
; Received beam analyzer : None
_DATEMEASURED = "26-Jul-2022 12:03:44"
_WL_UNIT = A
_WL1 = 1.5406
_WL2 = 1.54439
_WL3 = 1.39222
_WLRATIO = 0.5
_ANODE = Cu
_V4_INF_CREATOR = XRDWizard
_V4_INF_CREATOR_VERSION = V2.9.0.22
_V4_INF_WIZARD_VERSION = V2.9.0.22
_V4_INF_WIZARD_ADDINS = V2.9.0.22
_V4_INF_WIZARD_DOCTYPE = XRD
_V4_INF_OSUSER = McQueenLab
_V4_INF_USER = Administrator
_V4_INF_SITE = USA
_V4_INF_SAMPLEID = ML_20220718_40_SJD_4_LaB6-2min

; Data for range 1
_DRIVE = COUPLED
_STEPTIME = 5.64
_STEPSIZE = 0.0185756
_STEPMODE = C
_START = 5
_THETA = 2.5
_2THETA = 5
_KHI = 0
_PHI = 0
_X = 0
_Y = 0
_Z = 0
_DETECTOR = 5
; Detector type : Unknown
_DETECTORSLIT = unkn
_AUX1 = 0
_AUX2 = 0
_AUX3 = 0
_TIMESTARTED = 16
_TEMP_RATE = -1
_TEMP_DELAY = -1
_KV = 40
_MA = 40
_RANGE_WL = 1.5406
_3DPLANE = 0
_V4_ADDITIONALDETECTOR = 257
_V4_PSD2THETA = 3.3729
_V4_PSDCHANNEL1 = 0
_V4_PSDAPERTURE = 12.68
_V4_PSDTYPE = 5
_V4_PSDFIXED = 0
_V4_COUNTERS_MASK = 4096
_V4_DRIVES_MASK = 0
_V4_ENCODERS_MASK = 0
_2THETACOUNTS = 1
; 2THETA  PSD
   5.0000        133
   5.1858        125
   5.3715        123
   5.5573        137
   5.7430         94
   5.9288         84
   6.1145         92
   6.3003         96
   6.4860         80
   6.6718         94
   6.8576         82
   7.0433         85
   7.2291         86
   7.4148         86
   7.6006         98
   7.7863        115
   7.9721         88
   8.1579         91
   8.3436         93
   8.5294         99
   8.7151        101
   8.9009        108
   9.0866         91
   9.2724        123
   9.4581        105
   9.6439        104
   9.8297        119
  10.0154        129
  10.2012        123
  10.3869        124
  10.5727        124
  10.7584        129
  10.9442        130
  11.1299        119
  11.3157        112
  11.5015        137
  11.6872        110
  11.8730        123
  12.0587        133
  12.2445        106
  12.4302        110
  12.6160        110
  12.8018        118
  12.9875        105
  13.1733        111
  13.3590        103
  13.5448         96
  13.7305        101
  13.9163         98
  14.1020        103
  14.2878        109
  14.4736         98
  14.6593         84
  14.8451         90
  15.0308         96
  15.2166         96
  15.4023         88
  15.5881        100
  15.7738         98
  15.9596         86
  16.1454         79
  16.3311         89
  16.5169         86
  16.7026         99
  16.8884         66
  17.0741         85
  17.2599         82
  17.4457         72
  17.6314         73
  17.8172         89
  18.0029         88
  18.1887         87
  18.3744         74
  18.5602         89
  18.7459         77
  18.9317         84
  19.1175         92
  19.3032        102
  19.4890         91
  19.6747         96
  19.8605         88
  20.0462        104
  20.2320         94
  20.4177        104
  20.6035        101
  20.7893         91
  20.9750         84
  21.1608         99
  21.3465        204
  21.5323        102
  21.7180         85
  21.9038        104
  22.0896        111
  22.2753        102
  22.4611         88
  22.6468         90
  22.8326         81
  23.0183        102
  23.2041        111
  23.3898        100
  23.5756         97
  23.7614        101
  23.9471        102
  24.1329        108
  24.3186        122
  24.5044        110
  24.6901         96
  24.8759         89
  25.0616        114
  25.2474        110
  25.4332         94
  25.6189        101
  25.8047         91
  25.9904         94
  26.1762         96
  26.3619         83
  26.5477         89
  26.7335        106
  26.9192         76
  27.1050         97
  27.2907        123
  27.4765         90
  27.6622         89
  27.8480        102
  28.0337         88
  28.2195         74
  28.4053         79
  28.5910         97
  28.7768         78
  28.9625         82
  29.1483         82
  29.3340         87
  29.5198         84
  29.7055         90
  29.8913         74
  30.0771         83
  30.2628        100
  30.4486        108
  30.6343         90
  30.8201         76
  31.0058         65
  31.1916         77
  31.3774         69
  31.5631         85
  31.7489         63
  31.9346         68
  32.1204         66
  32.3061         75
  32.4919        102
  32.6776         67
  32.8634         64
  33.0492         80
  33.2349         61
  33.4207         73
  33.6064         60
  33.7922         75
  33.9779         61
  34.1637         59
  34.3494         69
  34.5352         48
  34.7210         76
  34.9067         64
  35.0925         50
  35.2782         51
  35.4640         58
  35.6497         49
  35.8355         49
  36.0213         43
  36.2070         53
  36.3928         58
  36.5785         43
  36.7643         47
  36.9500         35
  37.1358         54
  37.3215         57
  37.5073         55
  37.6931         43
  37.8788         42
  38.0646         43
  38.2503         38
  38.4361         33
  38.6218         49
  38.8076         47
  38.9933         31
  39.1791         39
  39.3649         30
  39.5506         38
  39.7364         40
  39.9221         33
  40.1079         42
  40.2936         39
  40.4794         37
  40.6652         42
  40.8509         43
  41.0367         35
  41.2224         28
  41.4082         38
  41.5939         43
  41.7797         44
  41.9654         39
  42.1512         43
  42.3370         36
  42.5227         32
  42.7085         36
  42.8942         37
  43.0800         26
  43.2657         38
  43.4515         41
  43.6372         51
  43.8230         33
  44.0088         44
  44.1945         39
  44.3803         35
  44.5660         39
  44.7518         30
  44.9375         37
  45.1233         29
  45.3091         49
  45.4948         32
  45.6806         34
  45.8663         33
  46.0521         26
  46.2378         31
  46.4236         25
  46.6093         27
  46.7951         37
  46.9809         30
  47.1666         31
  47.3524         38
  47.5381         30
  47.7239         34
  47.9096         29
  48.0954         34
  48.2811         26
  48.4669         43
  48.6527         36
  48.8384         36
  49.0242         34
  49.2099         30
  49.3957         36
  49.5814         28
  49.7672         31
  49.9530         22
  50.1387         30
  50.3245         35
  50.5102         22
  50.6960         25
  50.8817         38
  51.0675         27
  51.2532         41
  51.4390         35
  51.6248         35
  51.8105         38
  51.9963         29
  52.1820         26
  52.3678         34
  52.5535         25
  52.7393         33
  52.9250         40
  53.1108         28
  53.2966         29
  53.4823         30
  53.6681         35
  53.8538         22
  54.0396         44
  54.2253         30
  54.4111         33
  54.5969         27
  54.7826         32
  54.9684         20
  55.1541         27
  55.3399         27
  55.5256         29
  55.7114         27
  55.8971         31
  56.0829         36
  56.2687         17
  56.4544         27
  56.6402         25
  56.8259         33
  57.0117         36
  57.1974         32
  57.3832         32
  57.5689         24
  57.7547         33
  57.9405         27
  58.1262         32
  58.3120         16
  58.4977         31
  58.6835         36
  58.8692         22
  59.0550         28
  59.2408         27
  59.4265         33
  59.6123         36
  59.7980         24
  59.9838         30
  60.0024         27