File: notebooks/data/xrd_data/ML_20220718_43_SJD_4_LaB6-2min.uxd
; (content of file Y:\Sam\Apurva-07-20-2022\puck4\ML_20220718_43_SJD_4_LaB6-2min.raw)
_FILEVERSION = 3
_SAMPLE = ML_20220718_43_SJD_4_LaB6-2min
_+SAMPLE =
_SITE = USA
_USER = Administrator
_GONIOMETER_CODE = 20
; Goniometer : D8 theta/2theta, stage : Unknown
_ATTACHMENTS_CODE = 0
_GONIOMETER_RADIUS = 200.5
_FIXED_DIVSLIT = 0.6
_FIXED_SAMPLESLIT = 0
_SOLLER_SLITS = 2
_FIXED_DETSLIT = 9.55
_MONOCHROMATOR = 0
; Incident beam monochromator : None
_SOLLER_SLITS_2 = N
_THIN_FILM = N
_BETA_FILTER = Y
_FIXED_ANTISLIT = 5.89
_ANALYZER_CODE = 0
; Received beam analyzer : None
_DATEMEASURED = "26-Jul-2022 12:10:54"
_WL_UNIT = A
_WL1 = 1.5406
_WL2 = 1.54439
_WL3 = 1.39222
_WLRATIO = 0.5
_ANODE = Cu
_V4_INF_CREATOR = XRDWizard
_V4_INF_CREATOR_VERSION = V2.9.0.22
_V4_INF_WIZARD_VERSION = V2.9.0.22
_V4_INF_WIZARD_ADDINS = V2.9.0.22
_V4_INF_WIZARD_DOCTYPE = XRD
_V4_INF_OSUSER = McQueenLab
_V4_INF_USER = Administrator
_V4_INF_SITE = USA
_V4_INF_SAMPLEID = ML_20220718_43_SJD_4_LaB6-2min

; Data for range 1
_DRIVE = COUPLED
_STEPTIME = 5.64
_STEPSIZE = 0.0185756
_STEPMODE = C
_START = 5
_THETA = 2.5
_2THETA = 5
_KHI = 0
_PHI = 0
_X = 0
_Y = 0
_Z = 0
_DETECTOR = 5
; Detector type : Unknown
_DETECTORSLIT = unkn
_AUX1 = 0
_AUX2 = 0
_AUX3 = 0
_TIMESTARTED = 15
_TEMP_RATE = -1
_TEMP_DELAY = -1
_KV = 40
_MA = 40
_RANGE_WL = 1.5406
_3DPLANE = 0
_V4_ADDITIONALDETECTOR = 257
_V4_PSD2THETA = 3.3682
_V4_PSDCHANNEL1 = 0
_V4_PSDAPERTURE = 12.68
_V4_PSDTYPE = 5
_V4_PSDFIXED = 0
_V4_COUNTERS_MASK = 4096
_V4_DRIVES_MASK = 0
_V4_ENCODERS_MASK = 0
_2THETACOUNTS = 1
; 2THETA  PSD
   5.0000        129
   5.1858        120
   5.3715        117
   5.5573        123
   5.7430        100
   5.9288        105
   6.1145         95
   6.3003         95
   6.4860         98
   6.6718        104
   6.8576         78
   7.0433         93
   7.2291         83
   7.4148         70
   7.6006         83
   7.7863         77
   7.9721         88
   8.1579        100
   8.3436        101
   8.5294        100
   8.7151        114
   8.9009         86
   9.0866        102
   9.2724        115
   9.4581        114
   9.6439        123
   9.8297        139
  10.0154        116
  10.2012        124
  10.3869        125
  10.5727        121
  10.7584        135
  10.9442        110
  11.1299        112
  11.3157        142
  11.5015        117
  11.6872        120
  11.8730        105
  12.0587        122
  12.2445        108
  12.4302        101
  12.6160        104
  12.8018         91
  12.9875        109
  13.1733        101
  13.3590         95
  13.5448        101
  13.7305         87
  13.9163         98
  14.1020         79
  14.2878         86
  14.4736        107
  14.6593         95
  14.8451         83
  15.0308         80
  15.2166         69
  15.4023         76
  15.5881         94
  15.7738        104
  15.9596         82
  16.1454         96
  16.3311         76
  16.5169         68
  16.7026         89
  16.8884         86
  17.0741         98
  17.2599         67
  17.4457         72
  17.6314         84
  17.8172         78
  18.0029         70
  18.1887         75
  18.3744         94
  18.5602         88
  18.7459         93
  18.9317         81
  19.1175         83
  19.3032         75
  19.4890         74
  19.6747         88
  19.8605         66
  20.0462        102
  20.2320         89
  20.4177        115
  20.6035        104
  20.7893         82
  20.9750         81
  21.1608        106
  21.3465        259
  21.5323        102
  21.7180        106
  21.9038         82
  22.0896        102
  22.2753         97
  22.4611         95
  22.6468        103
  22.8326         82
  23.0183        103
  23.2041         99
  23.3898         90
  23.5756        102
  23.7614        102
  23.9471        116
  24.1329        112
  24.3186        114
  24.5044         94
  24.6901        107
  24.8759         86
  25.0616         89
  25.2474         99
  25.4332        104
  25.6189        109
  25.8047         95
  25.9904        101
  26.1762         88
  26.3619         78
  26.5477         86
  26.7335         91
  26.9192         88
  27.1050         98
  27.2907        119
  27.4765        105
  27.6622         90
  27.8480         87
  28.0337         94
  28.2195         97
  28.4053         86
  28.5910         82
  28.7768         71
  28.9625         77
  29.1483         94
  29.3340         96
  29.5198         84
  29.7055         84
  29.8913         75
  30.0771         88
  30.2628         75
  30.4486        120
  30.6343         74
  30.8201         64
  31.0058         69
  31.1916         60
  31.3774         77
  31.5631         57
  31.7489         62
  31.9346         75
  32.1204         58
  32.3061         60
  32.4919         73
  32.6776         76
  32.8634         62
  33.0492         49
  33.2349         63
  33.4207         60
  33.6064         48
  33.7922         55
  33.9779         55
  34.1637         67
  34.3494         64
  34.5352         58
  34.7210         78
  34.9067         56
  35.0925         47
  35.2782         56
  35.4640         51
  35.6497         54
  35.8355         48
  36.0213         47
  36.2070         50
  36.3928         46
  36.5785         39
  36.7643         34
  36.9500         49
  37.1358         44
  37.3215         32
  37.5073         62
  37.6931         46
  37.8788         51
  38.0646         44
  38.2503         51
  38.4361         45
  38.6218         38
  38.8076         40
  38.9933         46
  39.1791         46
  39.3649         50
  39.5506         39
  39.7364         39
  39.9221         40
  40.1079         28
  40.2936         42
  40.4794         36
  40.6652         35
  40.8509         34
  41.0367         34
  41.2224         36
  41.4082         46
  41.5939         41
  41.7797         44
  41.9654         40
  42.1512         48
  42.3370         35
  42.5227         47
  42.7085         29
  42.8942         32
  43.0800         41
  43.2657         35
  43.4515         41
  43.6372         51
  43.8230         29
  44.0088         35
  44.1945         43
  44.3803         34
  44.5660         38
  44.7518         36
  44.9375         26
  45.1233         37
  45.3091         34
  45.4948         37
  45.6806         25
  45.8663         39
  46.0521         34
  46.2378         39
  46.4236         30
  46.6093         30
  46.7951         25
  46.9809         29
  47.1666         42
  47.3524         26
  47.5381         22
  47.7239         35
  47.9096         38
  48.0954         42
  48.2811         27
  48.4669         30
  48.6527         38
  48.8384         28
  49.0242         38
  49.2099         29
  49.3957         36
  49.5814         33
  49.7672         29
  49.9530         29
  50.1387         30
  50.3245         25
  50.5102         38
  50.6960         24
  50.8817         30
  51.0675         27
  51.2532         20
  51.4390         25
  51.6248         30
  51.8105         41
  51.9963         33
  52.1820         30
  52.3678         25
  52.5535         34
  52.7393         22
  52.9250         25
  53.1108         31
  53.2966         26
  53.4823         24
  53.6681         36
  53.8538         31
  54.0396         33
  54.2253         38
  54.4111         25
  54.5969         28
  54.7826         34
  54.9684         23
  55.1541         39
  55.3399         24
  55.5256         28
  55.7114         33
  55.8971         27
  56.0829         29
  56.2687         26
  56.4544         25
  56.6402         29
  56.8259         37
  57.0117         39
  57.1974         18
  57.3832         33
  57.5689         26
  57.7547         26
  57.9405         28
  58.1262         20
  58.3120         26
  58.4977         25
  58.6835         25
  58.8692         24
  59.0550         23
  59.2408         24
  59.4265         29
  59.6123         25
  59.7980         28
  59.9838         31
  60.0024         26