File: notebooks/data/xrd_data/ML_20220720_37_SJD_4_LaB6-1min.csv
;,2THETA,
5.0000,80
5.1858,102
5.3715,100
5.5573,70
5.7430,81
5.9288,75
6.1145,61
6.3003,81
6.4860,93
6.6718,56
6.8576,65
7.0433,62
7.2291,71
7.4148,59
7.6006,45
7.7863,60
7.9721,57
8.1579,87
8.3436,77
8.5294,51
8.7151,63
8.9009,72
9.0866,80
9.2724,75
9.4581,92
9.6439,71
9.8297,90
10.0154,77
10.2012,82
10.3869,83
10.5727,88
10.7584,94
10.9442,87
11.1299,101
11.3157,91
11.5015,83
11.6872,93
11.8730,85
12.0587,82
12.2445,77
12.4302,81
12.6160,76
12.8018,73
12.9875,69
13.1733,74
13.3590,72
13.5448,65
13.7305,69
13.9163,53
14.1020,61
14.2878,52
14.4736,62
14.6593,59
14.8451,71
15.0308,60
15.2166,59
15.4023,47
15.5881,58
15.7738,62
15.9596,64
16.1454,57
16.3311,49
16.5169,63
16.7026,73
16.8884,67
17.0741,49
17.2599,59
17.4457,49
17.6314,60
17.8172,63
18.0029,67
18.1887,52
18.3744,64
18.5602,64
18.7459,63
18.9317,50
19.1175,69
19.3032,63
19.4890,67
19.6747,66
19.8605,73
20.0462,54
20.2320,66
20.4177,64
20.6035,56
20.7893,80
20.9750,68
21.1608,82
21.3465,176
21.5323,76
21.7180,71
21.9038,73
22.0896,74
22.2753,85
22.4611,58
22.6468,69
22.8326,65
23.0183,75
23.2041,73
23.3898,75
23.5756,84
23.7614,73
23.9471,70
24.1329,70
24.3186,65
24.5044,63
24.6901,80
24.8759,73
25.0616,71
25.2474,79
25.4332,66
25.6189,63
25.8047,64
25.9904,85
26.1762,75
26.3619,68
26.5477,65
26.7335,72
26.9192,81
27.1050,61
27.2907,68
27.4765,74
27.6622,61
27.8480,79
28.0337,56
28.2195,63
28.4053,69
28.5910,56
28.7768,74
28.9625,60
29.1483,65
29.3340,64
29.5198,69
29.7055,50
29.8913,71
30.0771,55
30.2628,64
30.4486,77
30.6343,57
30.8201,56
31.0058,61
31.1916,54
31.3774,48
31.5631,40
31.7489,61
31.9346,47
32.1204,46
32.3061,52
32.4919,54
32.6776,50
32.8634,37
33.0492,37
33.2349,42
33.4207,50
33.6064,38
33.7922,39
33.9779,46
34.1637,44
34.3494,44
34.5352,48
34.7210,54
34.9067,37
35.0925,30
35.2782,42
35.4640,44
35.6497,29
35.8355,31
36.0213,34
36.2070,34
36.3928,37
36.5785,47
36.7643,24
36.9500,35
37.1358,40
37.3215,27
37.5073,40
37.6931,24
37.8788,33
38.0646,26
38.2503,26
38.4361,36
38.6218,27
38.8076,30
38.9933,29
39.1791,23
39.3649,30
39.5506,23
39.7364,28
39.9221,34
40.1079,36
40.2936,17
40.4794,31
40.6652,40
40.8509,27
41.0367,28
41.2224,32
41.4082,29
41.5939,32
41.7797,23
41.9654,28
42.1512,25
42.3370,30
42.5227,22
42.7085,29
42.8942,30
43.0800,30
43.2657,40
43.4515,35
43.6372,42
43.8230,37
44.0088,32
44.1945,28
44.3803,26
44.5660,30
44.7518,33
44.9375,23
45.1233,24
45.3091,26
45.4948,22
45.6806,26
45.8663,27
46.0521,19
46.2378,32
46.4236,29
46.6093,22
46.7951,24
46.9809,20
47.1666,29
47.3524,25
47.5381,33
47.7239,14
47.9096,29
48.0954,25
48.2811,29
48.4669,24
48.6527,27
48.8384,21
49.0242,27
49.2099,24
49.3957,24
49.5814,22
49.7672,16
49.9530,26
50.1387,31
50.3245,27
50.5102,14
50.6960,18
50.8817,15
51.0675,33
51.2532,20
51.4390,35
51.6248,24
51.8105,33
51.9963,26
52.1820,19
52.3678,18
52.5535,16
52.7393,18
52.9250,25
53.1108,26
53.2966,18
53.4823,16
53.6681,17
53.8538,20
54.0396,22
54.2253,25
54.4111,18
54.5969,22
54.7826,21
54.9684,20
55.1541,26
55.3399,26
55.5256,24
55.7114,18
55.8971,20
56.0829,20
56.2687,26
56.4544,21
56.6402,17
56.8259,23
57.0117,23
57.1974,19
57.3832,22
57.5689,19
57.7547,33
57.9405,23
58.1262,15
58.3120,13
58.4977,16
58.6835,16
58.8692,25
59.0550,15
59.2408,20
59.4265,17
59.6123,26
59.7980,13
59.9838,17
60.0024,19