File: notebooks/data/xrd_data/ML_20220721_39_SJD_4_LaB6-4min.uxd
; (content of file Y:\Sam\Apurva-07-20-2022\puck1\ML_20220721_39_SJD_0_LaB6-4min.raw)
_FILEVERSION = 3
_SAMPLE = ML_20220721_39_SJD_0_LaB6-4min
_+SAMPLE =
_SITE = USA
_USER = Administrator
_GONIOMETER_CODE = 20
; Goniometer : D8 theta/2theta, stage : Unknown
_ATTACHMENTS_CODE = 0
_GONIOMETER_RADIUS = 200.5
_FIXED_DIVSLIT = 0.6
_FIXED_SAMPLESLIT = 0
_SOLLER_SLITS = 2
_FIXED_DETSLIT = 9.55
_MONOCHROMATOR = 0
; Incident beam monochromator : None
_SOLLER_SLITS_2 = N
_THIN_FILM = N
_BETA_FILTER = Y
_FIXED_ANTISLIT = 5.89
_ANALYZER_CODE = 0
; Received beam analyzer : None
_DATEMEASURED = "25-Jul-2022 16:47:18"
_WL_UNIT = A
_WL1 = 1.5406
_WL2 = 1.54439
_WL3 = 1.39222
_WLRATIO = 0.5
_ANODE = Cu
_V4_INF_CREATOR = XRDWizard
_V4_INF_CREATOR_VERSION = V2.9.0.22
_V4_INF_WIZARD_VERSION = V2.9.0.22
_V4_INF_WIZARD_ADDINS = V2.9.0.22
_V4_INF_WIZARD_DOCTYPE = XRD
_V4_INF_OSUSER = McQueenLab
_V4_INF_USER = Administrator
_V4_INF_SITE = USA
_V4_INF_SAMPLEID = ML_20220721_39_SJD_0_LaB6-4min

; Data for range 1
_DRIVE = COUPLED
_STEPTIME = 11.28
_STEPSIZE = 0.0185756
_STEPMODE = C
_START = 5
_THETA = 2.5
_2THETA = 5
_KHI = 0
_PHI = 0
_X = 0
_Y = 0
_Z = 0
_DETECTOR = 5
; Detector type : Unknown
_DETECTORSLIT = unkn
_AUX1 = 0
_AUX2 = 0
_AUX3 = 0
_TIMESTARTED = 15
_TEMP_RATE = -1
_TEMP_DELAY = -1
_KV = 40
_MA = 40
_RANGE_WL = 1.5406
_3DPLANE = 0
_V4_ADDITIONALDETECTOR = 257
_V4_PSD2THETA = 3.3673
_V4_PSDCHANNEL1 = 0
_V4_PSDAPERTURE = 12.68
_V4_PSDTYPE = 5
_V4_PSDFIXED = 0
_V4_COUNTERS_MASK = 4096
_V4_DRIVES_MASK = 0
_V4_ENCODERS_MASK = 0
_2THETACOUNTS = 1
; 2THETA  PSD
   5.0000        248
   5.1858        268
   5.3715        220
   5.5573        217
   5.7430        214
   5.9288        206
   6.1145        214
   6.3003        181
   6.4860        177
   6.6718        185
   6.8576        179
   7.0433        159
   7.2291        156
   7.4148        172
   7.6006        176
   7.7863        178
   7.9721        187
   8.1579        177
   8.3436        188
   8.5294        228
   8.7151        221
   8.9009        188
   9.0866        213
   9.2724        215
   9.4581        208
   9.6439        244
   9.8297        233
  10.0154        218
  10.2012        229
  10.3869        241
  10.5727        233
  10.7584        269
  10.9442        247
  11.1299        254
  11.3157        242
  11.5015        262
  11.6872        217
  11.8730        226
  12.0587        219
  12.2445        205
  12.4302        205
  12.6160        217
  12.8018        231
  12.9875        215
  13.1733        221
  13.3590        198
  13.5448        200
  13.7305        181
  13.9163        184
  14.1020        171
  14.2878        191
  14.4736        186
  14.6593        156
  14.8451        171
  15.0308        169
  15.2166        159
  15.4023        170
  15.5881        151
  15.7738        146
  15.9596        156
  16.1454        166
  16.3311        171
  16.5169        174
  16.7026        150
  16.8884        154
  17.0741        131
  17.2599        171
  17.4457        176
  17.6314        156
  17.8172        183
  18.0029        155
  18.1887        152
  18.3744        175
  18.5602        172
  18.7459        161
  18.9317        156
  19.1175        180
  19.3032        164
  19.4890        187
  19.6747        178
  19.8605        156
  20.0462        168
  20.2320        188
  20.4177        174
  20.6035        184
  20.7893        193
  20.9750        203
  21.1608        224
  21.3465        543
  21.5323        194
  21.7180        203
  21.9038        186
  22.0896        186
  22.2753        187
  22.4611        197
  22.6468        197
  22.8326        204
  23.0183        196
  23.2041        175
  23.3898        210
  23.5756        215
  23.7614        241
  23.9471        187
  24.1329        196
  24.3186        208
  24.5044        181
  24.6901        206
  24.8759        205
  25.0616        167
  25.2474        207
  25.4332        192
  25.6189        196
  25.8047        178
  25.9904        201
  26.1762        189
  26.3619        176
  26.5477        194
  26.7335        188
  26.9192        205
  27.1050        174
  27.2907        234
  27.4765        217
  27.6622        188
  27.8480        148
  28.0337        173
  28.2195        206
  28.4053        175
  28.5910        175
  28.7768        184
  28.9625        152
  29.1483        152
  29.3340        167
  29.5198        173
  29.7055        143
  29.8913        164
  30.0771        154
  30.2628        165
  30.4486        267
  30.6343        147
  30.8201        155
  31.0058        168
  31.1916        118
  31.3774        120
  31.5631        127
  31.7489        133
  31.9346        145
  32.1204        122
  32.3061        142
  32.4919        155
  32.6776        142
  32.8634        130
  33.0492        110
  33.2349        126
  33.4207        112
  33.6064        123
  33.7922        116
  33.9779        106
  34.1637        107
  34.3494        102
  34.5352        131
  34.7210        149
  34.9067        114
  35.0925         98
  35.2782        116
  35.4640        121
  35.6497        101
  35.8355         77
  36.0213        119
  36.2070        114
  36.3928        101
  36.5785        108
  36.7643         88
  36.9500        112
  37.1358        107
  37.3215         87
  37.5073        131
  37.6931         87
  37.8788         99
  38.0646         93
  38.2503         94
  38.4361         81
  38.6218         72
  38.8076         73
  38.9933         84
  39.1791         82
  39.3649         72
  39.5506         83
  39.7364         74
  39.9221         61
  40.1079         70
  40.2936         62
  40.4794         85
  40.6652         90
  40.8509         84
  41.0367         80
  41.2224         66
  41.4082         63
  41.5939         83
  41.7797         65
  41.9654         84
  42.1512         68
  42.3370         66
  42.5227         80
  42.7085         75
  42.8942         71
  43.0800         74
  43.2657         86
  43.4515        101
  43.6372        100
  43.8230         62
  44.0088         77
  44.1945         77
  44.3803         83
  44.5660         80
  44.7518         80
  44.9375         73
  45.1233         54
  45.3091         70
  45.4948         70
  45.6806         54
  45.8663         83
  46.0521         66
  46.2378         52
  46.4236         63
  46.6093         68
  46.7951         65
  46.9809         76
  47.1666         60
  47.3524         68
  47.5381         51
  47.7239         66
  47.9096         54
  48.0954         59
  48.2811         72
  48.4669         66
  48.6527         49
  48.8384         63
  49.0242         75
  49.2099         59
  49.3957         63
  49.5814         62
  49.7672         50
  49.9530         62
  50.1387         66
  50.3245         75
  50.5102         55
  50.6960         69
  50.8817         49
  51.0675         56
  51.2532         61
  51.4390         73
  51.6248         69
  51.8105         59
  51.9963         64
  52.1820         78
  52.3678         61
  52.5535         55
  52.7393         59
  52.9250         55
  53.1108         53
  53.2966         46
  53.4823         65
  53.6681         61
  53.8538         47
  54.0396         68
  54.2253         60
  54.4111         44
  54.5969         55
  54.7826         56
  54.9684         60
  55.1541         45
  55.3399         50
  55.5256         55
  55.7114         65
  55.8971         50
  56.0829         73
  56.2687         77
  56.4544         65
  56.6402         46
  56.8259         53
  57.0117         58
  57.1974         56
  57.3832         64
  57.5689         53
  57.7547         60
  57.9405         57
  58.1262         46
  58.3120         47
  58.4977         61
  58.6835         65
  58.8692         50
  59.0550         63
  59.2408         35
  59.4265         50
  59.6123         44
  59.7980         67
  59.9838         51
  60.0024         55