File: notebooks/data/xrd_data/ML_20220721_16_SJD_4_LaB6-4min.csv
;,2THETA,
5.0000,278
5.1858,254
5.3715,246
5.5573,249
5.7430,206
5.9288,218
6.1145,200
6.3003,197
6.4860,184
6.6718,202
6.8576,144
7.0433,166
7.2291,175
7.4148,172
7.6006,184
7.7863,188
7.9721,192
8.1579,214
8.3436,205
8.5294,214
8.7151,190
8.9009,213
9.0866,194
9.2724,193
9.4581,209
9.6439,217
9.8297,216
10.0154,272
10.2012,273
10.3869,257
10.5727,257
10.7584,256
10.9442,260
11.1299,252
11.3157,235
11.5015,247
11.6872,240
11.8730,276
12.0587,240
12.2445,243
12.4302,246
12.6160,221
12.8018,233
12.9875,196
13.1733,206
13.3590,201
13.5448,218
13.7305,192
13.9163,187
14.1020,190
14.2878,183
14.4736,174
14.6593,178
14.8451,176
15.0308,186
15.2166,168
15.4023,166
15.5881,154
15.7738,166
15.9596,171
16.1454,173
16.3311,154
16.5169,156
16.7026,152
16.8884,165
17.0741,156
17.2599,168
17.4457,162
17.6314,168
17.8172,162
18.0029,150
18.1887,158
18.3744,204
18.5602,159
18.7459,152
18.9317,189
19.1175,147
19.3032,169
19.4890,187
19.6747,193
19.8605,188
20.0462,177
20.2320,185
20.4177,182
20.6035,191
20.7893,184
20.9750,179
21.1608,217
21.3465,520
21.5323,235
21.7180,203
21.9038,217
22.0896,189
22.2753,200
22.4611,191
22.6468,199
22.8326,195
23.0183,180
23.2041,202
23.3898,201
23.5756,209
23.7614,211
23.9471,199
24.1329,232
24.3186,219
24.5044,229
24.6901,201
24.8759,215
25.0616,189
25.2474,193
25.4332,213
25.6189,209
25.8047,189
25.9904,195
26.1762,180
26.3619,195
26.5477,193
26.7335,180
26.9192,188
27.1050,190
27.2907,205
27.4765,220
27.6622,183
27.8480,175
28.0337,176
28.2195,158
28.4053,184
28.5910,162
28.7768,181
28.9625,176
29.1483,158
29.3340,161
29.5198,162
29.7055,183
29.8913,156
30.0771,152
30.2628,191
30.4486,256
30.6343,151
30.8201,160
31.0058,124
31.1916,119
31.3774,146
31.5631,129
31.7489,159
31.9346,174
32.1204,124
32.3061,113
32.4919,135
32.6776,136
32.8634,128
33.0492,118
33.2349,119
33.4207,107
33.6064,132
33.7922,130
33.9779,104
34.1637,111
34.3494,120
34.5352,112
34.7210,132
34.9067,102
35.0925,92
35.2782,116
35.4640,127
35.6497,109
35.8355,110
36.0213,103
36.2070,112
36.3928,91
36.5785,82
36.7643,83
36.9500,85
37.1358,88
37.3215,106
37.5073,115
37.6931,107
37.8788,82
38.0646,82
38.2503,85
38.4361,85
38.6218,69
38.8076,99
38.9933,66
39.1791,76
39.3649,71
39.5506,81
39.7364,77
39.9221,89
40.1079,72
40.2936,73
40.4794,60
40.6652,80
40.8509,83
41.0367,78
41.2224,71
41.4082,69
41.5939,74
41.7797,73
41.9654,65
42.1512,74
42.3370,87
42.5227,71
42.7085,69
42.8942,70
43.0800,73
43.2657,89
43.4515,94
43.6372,94
43.8230,86
44.0088,64
44.1945,58
44.3803,70
44.5660,68
44.7518,91
44.9375,61
45.1233,82
45.3091,70
45.4948,60
45.6806,76
45.8663,62
46.0521,59
46.2378,72
46.4236,62
46.6093,70
46.7951,64
46.9809,76
47.1666,69
47.3524,61
47.5381,83
47.7239,63
47.9096,64
48.0954,56
48.2811,72
48.4669,60
48.6527,56
48.8384,69
49.0242,81
49.2099,71
49.3957,69
49.5814,63
49.7672,53
49.9530,60
50.1387,54
50.3245,64
50.5102,60
50.6960,69
50.8817,60
51.0675,61
51.2532,53
51.4390,65
51.6248,68
51.8105,66
51.9963,58
52.1820,58
52.3678,58
52.5535,62
52.7393,55
52.9250,59
53.1108,50
53.2966,58
53.4823,53
53.6681,70
53.8538,56
54.0396,58
54.2253,61
54.4111,66
54.5969,73
54.7826,63
54.9684,47
55.1541,59
55.3399,63
55.5256,48
55.7114,63
55.8971,58
56.0829,57
56.2687,62
56.4544,48
56.6402,48
56.8259,52
57.0117,58
57.1974,62
57.3832,57
57.5689,65
57.7547,60
57.9405,57
58.1262,66
58.3120,58
58.4977,58
58.6835,59
58.8692,60
59.0550,47
59.2408,57
59.4265,40
59.6123,50
59.7980,51
59.9838,45
60.0024,52