File: notebooks/data/xrd_data/ML_20220718_56_SJD_4_LaB6-4min.csv
;,2THETA,
5.0000,278
5.1858,246
5.3715,234
5.5573,231
5.7430,217
5.9288,183
6.1145,209
6.3003,189
6.4860,169
6.6718,187
6.8576,163
7.0433,148
7.2291,130
7.4148,176
7.6006,176
7.7863,166
7.9721,165
8.1579,189
8.3436,228
8.5294,171
8.7151,210
8.9009,221
9.0866,196
9.2724,197
9.4581,201
9.6439,222
9.8297,244
10.0154,248
10.2012,230
10.3869,265
10.5727,253
10.7584,243
10.9442,245
11.1299,228
11.3157,239
11.5015,237
11.6872,236
11.8730,243
12.0587,234
12.2445,236
12.4302,228
12.6160,220
12.8018,203
12.9875,211
13.1733,211
13.3590,197
13.5448,183
13.7305,190
13.9163,192
14.1020,195
14.2878,171
14.4736,186
14.6593,161
14.8451,147
15.0308,191
15.2166,185
15.4023,159
15.5881,195
15.7738,171
15.9596,167
16.1454,144
16.3311,171
16.5169,150
16.7026,173
16.8884,167
17.0741,171
17.2599,171
17.4457,173
17.6314,166
17.8172,165
18.0029,167
18.1887,160
18.3744,163
18.5602,170
18.7459,175
18.9317,153
19.1175,166
19.3032,155
19.4890,158
19.6747,202
19.8605,181
20.0462,165
20.2320,191
20.4177,188
20.6035,193
20.7893,191
20.9750,197
21.1608,228
21.3465,486
21.5323,214
21.7180,165
21.9038,182
22.0896,198
22.2753,190
22.4611,199
22.6468,201
22.8326,194
23.0183,188
23.2041,223
23.3898,214
23.5756,208
23.7614,181
23.9471,205
24.1329,200
24.3186,216
24.5044,183
24.6901,194
24.8759,228
25.0616,236
25.2474,207
25.4332,198
25.6189,194
25.8047,188
25.9904,203
26.1762,212
26.3619,192
26.5477,216
26.7335,175
26.9192,179
27.1050,206
27.2907,189
27.4765,188
27.6622,181
27.8480,173
28.0337,165
28.2195,184
28.4053,160
28.5910,154
28.7768,174
28.9625,181
29.1483,165
29.3340,165
29.5198,147
29.7055,142
29.8913,139
30.0771,173
30.2628,173
30.4486,254
30.6343,145
30.8201,146
31.0058,132
31.1916,151
31.3774,164
31.5631,152
31.7489,139
31.9346,110
32.1204,127
32.3061,126
32.4919,141
32.6776,133
32.8634,142
33.0492,129
33.2349,111
33.4207,125
33.6064,90
33.7922,108
33.9779,93
34.1637,111
34.3494,118
34.5352,126
34.7210,142
34.9067,104
35.0925,117
35.2782,91
35.4640,96
35.6497,100
35.8355,111
36.0213,112
36.2070,86
36.3928,90
36.5785,108
36.7643,104
36.9500,100
37.1358,83
37.3215,100
37.5073,105
37.6931,79
37.8788,79
38.0646,82
38.2503,76
38.4361,85
38.6218,79
38.8076,87
38.9933,80
39.1791,75
39.3649,78
39.5506,88
39.7364,68
39.9221,82
40.1079,72
40.2936,79
40.4794,89
40.6652,73
40.8509,77
41.0367,68
41.2224,81
41.4082,65
41.5939,58
41.7797,74
41.9654,72
42.1512,69
42.3370,77
42.5227,73
42.7085,75
42.8942,69
43.0800,67
43.2657,71
43.4515,84
43.6372,76
43.8230,78
44.0088,71
44.1945,64
44.3803,92
44.5660,82
44.7518,84
44.9375,67
45.1233,72
45.3091,73
45.4948,64
45.6806,69
45.8663,63
46.0521,65
46.2378,52
46.4236,65
46.6093,75
46.7951,73
46.9809,63
47.1666,81
47.3524,64
47.5381,69
47.7239,51
47.9096,67
48.0954,59
48.2811,73
48.4669,73
48.6527,59
48.8384,65
49.0242,78
49.2099,59
49.3957,63
49.5814,66
49.7672,73
49.9530,55
50.1387,85
50.3245,77
50.5102,68
50.6960,68
50.8817,61
51.0675,50
51.2532,60
51.4390,79
51.6248,54
51.8105,58
51.9963,50
52.1820,45
52.3678,46
52.5535,58
52.7393,57
52.9250,72
53.1108,52
53.2966,55
53.4823,53
53.6681,49
53.8538,64
54.0396,67
54.2253,50
54.4111,57
54.5969,65
54.7826,58
54.9684,51
55.1541,69
55.3399,59
55.5256,61
55.7114,71
55.8971,74
56.0829,67
56.2687,56
56.4544,52
56.6402,47
56.8259,57
57.0117,62
57.1974,62
57.3832,74
57.5689,52
57.7547,53
57.9405,59
58.1262,61
58.3120,51
58.4977,54
58.6835,48
58.8692,55
59.0550,66
59.2408,57
59.4265,62
59.6123,62
59.7980,52
59.9838,47
60.0024,64