File: notebooks/data/xrd_data/ML_20220718_45_SJD_4_LaB6-1min.csv
;,2THETA,
5.0000,109
5.1858,90
5.3715,88
5.5573,77
5.7430,82
5.9288,69
6.1145,64
6.3003,59
6.4860,60
6.6718,63
6.8576,62
7.0433,68
7.2291,57
7.4148,69
7.6006,57
7.7863,70
7.9721,68
8.1579,60
8.3436,70
8.5294,80
8.7151,78
8.9009,61
9.0866,83
9.2724,65
9.4581,87
9.6439,71
9.8297,105
10.0154,88
10.2012,98
10.3869,72
10.5727,82
10.7584,92
10.9442,99
11.1299,92
11.3157,82
11.5015,101
11.6872,81
11.8730,98
12.0587,67
12.2445,94
12.4302,82
12.6160,77
12.8018,83
12.9875,83
13.1733,78
13.3590,77
13.5448,64
13.7305,66
13.9163,82
14.1020,75
14.2878,65
14.4736,53
14.6593,73
14.8451,72
15.0308,72
15.2166,58
15.4023,58
15.5881,65
15.7738,39
15.9596,63
16.1454,54
16.3311,50
16.5169,56
16.7026,65
16.8884,57
17.0741,48
17.2599,46
17.4457,82
17.6314,62
17.8172,56
18.0029,65
18.1887,60
18.3744,62
18.5602,57
18.7459,59
18.9317,60
19.1175,75
19.3032,56
19.4890,63
19.6747,67
19.8605,62
20.0462,62
20.2320,62
20.4177,62
20.6035,62
20.7893,72
20.9750,63
21.1608,83
21.3465,187
21.5323,82
21.7180,76
21.9038,65
22.0896,68
22.2753,79
22.4611,76
22.6468,79
22.8326,83
23.0183,78
23.2041,69
23.3898,88
23.5756,68
23.7614,70
23.9471,72
24.1329,70
24.3186,94
24.5044,72
24.6901,73
24.8759,74
25.0616,69
25.2474,76
25.4332,68
25.6189,71
25.8047,71
25.9904,56
26.1762,76
26.3619,84
26.5477,75
26.7335,59
26.9192,63
27.1050,82
27.2907,75
27.4765,58
27.6622,71
27.8480,58
28.0337,63
28.2195,66
28.4053,54
28.5910,58
28.7768,68
28.9625,57
29.1483,58
29.3340,60
29.5198,49
29.7055,48
29.8913,61
30.0771,63
30.2628,66
30.4486,82
30.6343,52
30.8201,59
31.0058,63
31.1916,46
31.3774,53
31.5631,44
31.7489,50
31.9346,42
32.1204,61
32.3061,47
32.4919,58
32.6776,49
32.8634,41
33.0492,55
33.2349,36
33.4207,33
33.6064,54
33.7922,43
33.9779,52
34.1637,41
34.3494,38
34.5352,45
34.7210,58
34.9067,54
35.0925,40
35.2782,37
35.4640,33
35.6497,31
35.8355,29
36.0213,43
36.2070,45
36.3928,37
36.5785,33
36.7643,32
36.9500,30
37.1358,40
37.3215,42
37.5073,40
37.6931,33
37.8788,36
38.0646,26
38.2503,28
38.4361,28
38.6218,38
38.8076,31
38.9933,30
39.1791,24
39.3649,33
39.5506,33
39.7364,24
39.9221,39
40.1079,38
40.2936,28
40.4794,28
40.6652,37
40.8509,33
41.0367,25
41.2224,24
41.4082,31
41.5939,25
41.7797,21
41.9654,29
42.1512,36
42.3370,23
42.5227,28
42.7085,25
42.8942,27
43.0800,28
43.2657,31
43.4515,35
43.6372,31
43.8230,29
44.0088,27
44.1945,28
44.3803,40
44.5660,20
44.7518,26
44.9375,25
45.1233,25
45.3091,37
45.4948,21
45.6806,23
45.8663,32
46.0521,28
46.2378,29
46.4236,20
46.6093,18
46.7951,34
46.9809,18
47.1666,29
47.3524,23
47.5381,23
47.7239,29
47.9096,19
48.0954,24
48.2811,20
48.4669,17
48.6527,25
48.8384,23
49.0242,29
49.2099,26
49.3957,16
49.5814,17
49.7672,30
49.9530,26
50.1387,29
50.3245,24
50.5102,20
50.6960,22
50.8817,19
51.0675,21
51.2532,24
51.4390,29
51.6248,20
51.8105,28
51.9963,17
52.1820,21
52.3678,26
52.5535,24
52.7393,19
52.9250,21
53.1108,33
53.2966,27
53.4823,23
53.6681,20
53.8538,21
54.0396,27
54.2253,19
54.4111,28
54.5969,17
54.7826,21
54.9684,19
55.1541,17
55.3399,21
55.5256,26
55.7114,22
55.8971,16
56.0829,22
56.2687,26
56.4544,18
56.6402,20
56.8259,17
57.0117,15
57.1974,15
57.3832,25
57.5689,17
57.7547,13
57.9405,26
58.1262,15
58.3120,20
58.4977,17
58.6835,17
58.8692,24
59.0550,28
59.2408,12
59.4265,10
59.6123,19
59.7980,18
59.9838,19
60.0024,20