File: notebooks/data/xrd_data/ML_20220718_41_SJD_4_LaB6-4min.csv
;,2THETA,
5.0000,288
5.1858,260
5.3715,266
5.5573,216
5.7430,197
5.9288,197
6.1145,181
6.3003,196
6.4860,174
6.6718,192
6.8576,163
7.0433,167
7.2291,182
7.4148,197
7.6006,187
7.7863,170
7.9721,178
8.1579,204
8.3436,194
8.5294,189
8.7151,190
8.9009,206
9.0866,229
9.2724,239
9.4581,222
9.6439,240
9.8297,245
10.0154,242
10.2012,231
10.3869,246
10.5727,276
10.7584,245
10.9442,226
11.1299,232
11.3157,215
11.5015,256
11.6872,252
11.8730,231
12.0587,237
12.2445,214
12.4302,225
12.6160,229
12.8018,215
12.9875,208
13.1733,181
13.3590,178
13.5448,169
13.7305,210
13.9163,192
14.1020,167
14.2878,184
14.4736,180
14.6593,173
14.8451,185
15.0308,164
15.2166,172
15.4023,167
15.5881,168
15.7738,158
15.9596,149
16.1454,165
16.3311,170
16.5169,154
16.7026,166
16.8884,166
17.0741,152
17.2599,167
17.4457,164
17.6314,179
17.8172,147
18.0029,161
18.1887,166
18.3744,191
18.5602,191
18.7459,171
18.9317,172
19.1175,168
19.3032,178
19.4890,176
19.6747,172
19.8605,171
20.0462,175
20.2320,177
20.4177,175
20.6035,172
20.7893,186
20.9750,159
21.1608,244
21.3465,501
21.5323,224
21.7180,194
21.9038,182
22.0896,212
22.2753,209
22.4611,191
22.6468,203
22.8326,196
23.0183,203
23.2041,193
23.3898,192
23.5756,191
23.7614,197
23.9471,204
24.1329,171
24.3186,234
24.5044,204
24.6901,217
24.8759,198
25.0616,179
25.2474,187
25.4332,184
25.6189,185
25.8047,196
25.9904,210
26.1762,181
26.3619,201
26.5477,184
26.7335,201
26.9192,181
27.1050,217
27.2907,235
27.4765,202
27.6622,194
27.8480,175
28.0337,193
28.2195,165
28.4053,171
28.5910,156
28.7768,162
28.9625,148
29.1483,147
29.3340,154
29.5198,171
29.7055,143
29.8913,180
30.0771,165
30.2628,181
30.4486,238
30.6343,157
30.8201,165
31.0058,126
31.1916,150
31.3774,158
31.5631,135
31.7489,134
31.9346,146
32.1204,148
32.3061,138
32.4919,135
32.6776,123
32.8634,140
33.0492,118
33.2349,122
33.4207,136
33.6064,112
33.7922,99
33.9779,104
34.1637,107
34.3494,108
34.5352,115
34.7210,149
34.9067,126
35.0925,129
35.2782,116
35.4640,112
35.6497,81
35.8355,102
36.0213,109
36.2070,89
36.3928,90
36.5785,98
36.7643,94
36.9500,87
37.1358,110
37.3215,104
37.5073,113
37.6931,101
37.8788,62
38.0646,87
38.2503,90
38.4361,102
38.6218,80
38.8076,107
38.9933,85
39.1791,72
39.3649,80
39.5506,77
39.7364,66
39.9221,73
40.1079,75
40.2936,81
40.4794,86
40.6652,82
40.8509,75
41.0367,79
41.2224,78
41.4082,71
41.5939,88
41.7797,89
41.9654,64
42.1512,68
42.3370,89
42.5227,73
42.7085,71
42.8942,66
43.0800,81
43.2657,83
43.4515,81
43.6372,103
43.8230,69
44.0088,70
44.1945,65
44.3803,72
44.5660,67
44.7518,69
44.9375,67
45.1233,58
45.3091,64
45.4948,77
45.6806,66
45.8663,56
46.0521,73
46.2378,67
46.4236,66
46.6093,52
46.7951,70
46.9809,62
47.1666,55
47.3524,66
47.5381,62
47.7239,81
47.9096,78
48.0954,77
48.2811,55
48.4669,65
48.6527,70
48.8384,58
49.0242,94
49.2099,61
49.3957,81
49.5814,54
49.7672,55
49.9530,64
50.1387,60
50.3245,55
50.5102,52
50.6960,61
50.8817,60
51.0675,59
51.2532,70
51.4390,72
51.6248,65
51.8105,56
51.9963,61
52.1820,55
52.3678,54
52.5535,63
52.7393,72
52.9250,65
53.1108,51
53.2966,58
53.4823,60
53.6681,52
53.8538,55
54.0396,68
54.2253,49
54.4111,65
54.5969,50
54.7826,69
54.9684,47
55.1541,59
55.3399,65
55.5256,60
55.7114,56
55.8971,49
56.0829,56
56.2687,62
56.4544,60
56.6402,63
56.8259,59
57.0117,48
57.1974,53
57.3832,47
57.5689,47
57.7547,46
57.9405,69
58.1262,54
58.3120,59
58.4977,53
58.6835,48
58.8692,60
59.0550,52
59.2408,40
59.4265,49
59.6123,61
59.7980,58
59.9838,67
60.0024,52