File: notebooks/data/xrd_data/ML_20220720_7_SJD_4_LaB6-4min.csv
;,2THETA,
5.0000,256
5.1858,232
5.3715,213
5.5573,227
5.7430,223
5.9288,207
6.1145,200
6.3003,166
6.4860,175
6.6718,171
6.8576,195
7.0433,167
7.2291,176
7.4148,168
7.6006,159
7.7863,154
7.9721,171
8.1579,191
8.3436,195
8.5294,201
8.7151,187
8.9009,200
9.0866,250
9.2724,234
9.4581,236
9.6439,229
9.8297,239
10.0154,230
10.2012,232
10.3869,230
10.5727,234
10.7584,253
10.9442,260
11.1299,245
11.3157,223
11.5015,231
11.6872,242
11.8730,221
12.0587,242
12.2445,226
12.4302,217
12.6160,217
12.8018,216
12.9875,220
13.1733,191
13.3590,206
13.5448,209
13.7305,173
13.9163,179
14.1020,189
14.2878,186
14.4736,176
14.6593,185
14.8451,175
15.0308,179
15.2166,182
15.4023,160
15.5881,156
15.7738,185
15.9596,178
16.1454,170
16.3311,164
16.5169,159
16.7026,168
16.8884,162
17.0741,165
17.2599,162
17.4457,179
17.6314,148
17.8172,172
18.0029,171
18.1887,185
18.3744,146
18.5602,153
18.7459,182
18.9317,187
19.1175,173
19.3032,171
19.4890,152
19.6747,150
19.8605,214
20.0462,190
20.2320,183
20.4177,186
20.6035,169
20.7893,191
20.9750,182
21.1608,260
21.3465,508
21.5323,194
21.7180,217
21.9038,172
22.0896,198
22.2753,193
22.4611,186
22.6468,181
22.8326,183
23.0183,205
23.2041,186
23.3898,196
23.5756,206
23.7614,184
23.9471,211
24.1329,200
24.3186,223
24.5044,215
24.6901,206
24.8759,187
25.0616,184
25.2474,202
25.4332,181
25.6189,217
25.8047,195
25.9904,208
26.1762,198
26.3619,187
26.5477,192
26.7335,211
26.9192,189
27.1050,181
27.2907,220
27.4765,178
27.6622,190
27.8480,194
28.0337,172
28.2195,180
28.4053,179
28.5910,147
28.7768,165
28.9625,161
29.1483,180
29.3340,176
29.5198,159
29.7055,168
29.8913,149
30.0771,150
30.2628,176
30.4486,253
30.6343,146
30.8201,150
31.0058,163
31.1916,144
31.3774,138
31.5631,140
31.7489,125
31.9346,133
32.1204,157
32.3061,138
32.4919,134
32.6776,146
32.8634,119
33.0492,109
33.2349,142
33.4207,147
33.6064,127
33.7922,122
33.9779,103
34.1637,125
34.3494,113
34.5352,136
34.7210,130
34.9067,140
35.0925,98
35.2782,99
35.4640,91
35.6497,85
35.8355,105
36.0213,92
36.2070,96
36.3928,112
36.5785,111
36.7643,95
36.9500,100
37.1358,90
37.3215,105
37.5073,129
37.6931,85
37.8788,85
38.0646,92
38.2503,82
38.4361,80
38.6218,76
38.8076,92
38.9933,100
39.1791,81
39.3649,80
39.5506,76
39.7364,63
39.9221,82
40.1079,82
40.2936,80
40.4794,65
40.6652,87
40.8509,72
41.0367,81
41.2224,81
41.4082,95
41.5939,69
41.7797,85
41.9654,86
42.1512,73
42.3370,80
42.5227,96
42.7085,77
42.8942,82
43.0800,74
43.2657,72
43.4515,81
43.6372,97
43.8230,78
44.0088,74
44.1945,76
44.3803,67
44.5660,78
44.7518,71
44.9375,70
45.1233,68
45.3091,78
45.4948,73
45.6806,80
45.8663,75
46.0521,63
46.2378,76
46.4236,77
46.6093,70
46.7951,66
46.9809,68
47.1666,60
47.3524,63
47.5381,59
47.7239,75
47.9096,71
48.0954,58
48.2811,65
48.4669,66
48.6527,65
48.8384,88
49.0242,77
49.2099,64
49.3957,57
49.5814,62
49.7672,64
49.9530,67
50.1387,74
50.3245,66
50.5102,58
50.6960,66
50.8817,56
51.0675,47
51.2532,60
51.4390,65
51.6248,66
51.8105,76
51.9963,64
52.1820,71
52.3678,57
52.5535,68
52.7393,55
52.9250,62
53.1108,57
53.2966,50
53.4823,71
53.6681,67
53.8538,51
54.0396,62
54.2253,74
54.4111,62
54.5969,63
54.7826,70
54.9684,50
55.1541,49
55.3399,70
55.5256,60
55.7114,63
55.8971,63
56.0829,57
56.2687,58
56.4544,56
56.6402,52
56.8259,56
57.0117,60
57.1974,46
57.3832,48
57.5689,64
57.7547,50
57.9405,63
58.1262,53
58.3120,44
58.4977,49
58.6835,71
58.8692,57
59.0550,52
59.2408,53
59.4265,71
59.6123,60
59.7980,57
59.9838,56
60.0024,57