File: notebooks/data/xrd_data/ML_20220718_49_SJD_4_LaB6-4min.uxd
; (content of file Y:\Sam\Apurva-07-20-2022\puck4\ML_20220718_49_SJD_4_LaB6-4min.raw)
_FILEVERSION = 3
_SAMPLE = ML_20220718_49_SJD_4_LaB6-4min
_+SAMPLE =
_SITE = USA
_USER = Administrator
_GONIOMETER_CODE = 20
; Goniometer : D8 theta/2theta, stage : Unknown
_ATTACHMENTS_CODE = 0
_GONIOMETER_RADIUS = 200.5
_FIXED_DIVSLIT = 0.6
_FIXED_SAMPLESLIT = 0
_SOLLER_SLITS = 2
_FIXED_DETSLIT = 9.55
_MONOCHROMATOR = 0
; Incident beam monochromator : None
_SOLLER_SLITS_2 = N
_THIN_FILM = N
_BETA_FILTER = Y
_FIXED_ANTISLIT = 5.89
_ANALYZER_CODE = 0
; Received beam analyzer : None
_DATEMEASURED = "26-Jul-2022 13:56:19"
_WL_UNIT = A
_WL1 = 1.5406
_WL2 = 1.54439
_WL3 = 1.39222
_WLRATIO = 0.5
_ANODE = Cu
_V4_INF_CREATOR = XRDWizard
_V4_INF_CREATOR_VERSION = V2.9.0.22
_V4_INF_WIZARD_VERSION = V2.9.0.22
_V4_INF_WIZARD_ADDINS = V2.9.0.22
_V4_INF_WIZARD_DOCTYPE = XRD
_V4_INF_OSUSER = McQueenLab
_V4_INF_USER = Administrator
_V4_INF_SITE = USA
_V4_INF_SAMPLEID = ML_20220718_49_SJD_4_LaB6-4min

; Data for range 1
_DRIVE = COUPLED
_STEPTIME = 11.28
_STEPSIZE = 0.0185756
_STEPMODE = C
_START = 5
_THETA = 2.5
_2THETA = 5
_KHI = 0
_PHI = 0
_X = 0
_Y = 0
_Z = 0
_DETECTOR = 5
; Detector type : Unknown
_DETECTORSLIT = unkn
_AUX1 = 0
_AUX2 = 0
_AUX3 = 0
_TIMESTARTED = 15
_TEMP_RATE = -1
_TEMP_DELAY = -1
_KV = 40
_MA = 40
_RANGE_WL = 1.5406
_3DPLANE = 0
_V4_ADDITIONALDETECTOR = 257
_V4_PSD2THETA = 3.3663
_V4_PSDCHANNEL1 = 0
_V4_PSDAPERTURE = 12.68
_V4_PSDTYPE = 5
_V4_PSDFIXED = 0
_V4_COUNTERS_MASK = 4096
_V4_DRIVES_MASK = 0
_V4_ENCODERS_MASK = 0
_2THETACOUNTS = 1
; 2THETA  PSD
   5.0000        247
   5.1858        247
   5.3715        220
   5.5573        235
   5.7430        204
   5.9288        206
   6.1145        216
   6.3003        165
   6.4860        178
   6.6718        160
   6.8576        181
   7.0433        188
   7.2291        152
   7.4148        176
   7.6006        175
   7.7863        180
   7.9721        193
   8.1579        173
   8.3436        203
   8.5294        205
   8.7151        237
   8.9009        173
   9.0866        216
   9.2724        200
   9.4581        233
   9.6439        252
   9.8297        219
  10.0154        221
  10.2012        197
  10.3869        236
  10.5727        259
  10.7584        237
  10.9442        248
  11.1299        224
  11.3157        204
  11.5015        233
  11.6872        252
  11.8730        266
  12.0587        215
  12.2445        231
  12.4302        231
  12.6160        243
  12.8018        209
  12.9875        216
  13.1733        175
  13.3590        209
  13.5448        187
  13.7305        183
  13.9163        186
  14.1020        170
  14.2878        210
  14.4736        180
  14.6593        175
  14.8451        183
  15.0308        153
  15.2166        169
  15.4023        148
  15.5881        159
  15.7738        148
  15.9596        185
  16.1454        173
  16.3311        188
  16.5169        167
  16.7026        171
  16.8884        161
  17.0741        149
  17.2599        181
  17.4457        170
  17.6314        177
  17.8172        150
  18.0029        160
  18.1887        154
  18.3744        155
  18.5602        159
  18.7459        178
  18.9317        164
  19.1175        177
  19.3032        143
  19.4890        165
  19.6747        188
  19.8605        173
  20.0462        187
  20.2320        180
  20.4177        169
  20.6035        180
  20.7893        187
  20.9750        209
  21.1608        222
  21.3465        474
  21.5323        217
  21.7180        198
  21.9038        177
  22.0896        207
  22.2753        219
  22.4611        195
  22.6468        212
  22.8326        178
  23.0183        210
  23.2041        190
  23.3898        186
  23.5756        185
  23.7614        182
  23.9471        209
  24.1329        234
  24.3186        219
  24.5044        193
  24.6901        196
  24.8759        195
  25.0616        199
  25.2474        221
  25.4332        196
  25.6189        195
  25.8047        185
  25.9904        183
  26.1762        180
  26.3619        178
  26.5477        205
  26.7335        180
  26.9192        195
  27.1050        198
  27.2907        211
  27.4765        181
  27.6622        189
  27.8480        173
  28.0337        158
  28.2195        178
  28.4053        174
  28.5910        176
  28.7768        177
  28.9625        173
  29.1483        168
  29.3340        163
  29.5198        156
  29.7055        177
  29.8913        146
  30.0771        148
  30.2628        157
  30.4486        226
  30.6343        140
  30.8201        144
  31.0058        153
  31.1916        143
  31.3774        149
  31.5631        150
  31.7489        115
  31.9346        131
  32.1204        126
  32.3061        140
  32.4919        182
  32.6776        139
  32.8634        140
  33.0492        104
  33.2349        125
  33.4207        105
  33.6064        124
  33.7922        118
  33.9779        109
  34.1637        122
  34.3494        117
  34.5352        105
  34.7210        157
  34.9067        115
  35.0925        109
  35.2782         86
  35.4640        117
  35.6497        118
  35.8355        113
  36.0213        103
  36.2070        103
  36.3928         92
  36.5785        103
  36.7643        106
  36.9500         91
  37.1358         95
  37.3215        111
  37.5073        114
  37.6931         92
  37.8788         93
  38.0646         87
  38.2503         89
  38.4361         85
  38.6218         69
  38.8076         93
  38.9933         90
  39.1791         79
  39.3649         77
  39.5506         78
  39.7364         86
  39.9221        101
  40.1079         85
  40.2936         74
  40.4794         85
  40.6652         75
  40.8509         71
  41.0367         81
  41.2224         94
  41.4082         79
  41.5939         79
  41.7797         72
  41.9654         91
  42.1512         77
  42.3370         84
  42.5227         87
  42.7085         78
  42.8942         72
  43.0800         72
  43.2657         79
  43.4515        104
  43.6372         97
  43.8230         81
  44.0088         68
  44.1945         73
  44.3803         76
  44.5660         79
  44.7518         70
  44.9375         88
  45.1233         71
  45.3091         67
  45.4948         62
  45.6806         83
  45.8663         61
  46.0521         56
  46.2378         69
  46.4236         75
  46.6093         81
  46.7951         68
  46.9809         50
  47.1666         52
  47.3524         68
  47.5381         71
  47.7239         68
  47.9096         53
  48.0954         66
  48.2811         69
  48.4669         68
  48.6527         60
  48.8384         66
  49.0242         82
  49.2099         70
  49.3957         60
  49.5814         65
  49.7672         61
  49.9530         73
  50.1387         59
  50.3245         63
  50.5102         61
  50.6960         45
  50.8817         60
  51.0675         55
  51.2532         59
  51.4390         75
  51.6248         44
  51.8105         56
  51.9963         57
  52.1820         52
  52.3678         59
  52.5535         57
  52.7393         49
  52.9250         40
  53.1108         68
  53.2966         56
  53.4823         48
  53.6681         49
  53.8538         60
  54.0396         57
  54.2253         66
  54.4111         60
  54.5969         54
  54.7826         61
  54.9684         61
  55.1541         48
  55.3399         45
  55.5256         60
  55.7114         44
  55.8971         64
  56.0829         45
  56.2687         62
  56.4544         57
  56.6402         56
  56.8259         53
  57.0117         45
  57.1974         61
  57.3832         59
  57.5689         51
  57.7547         61
  57.9405         58
  58.1262         58
  58.3120         58
  58.4977         56
  58.6835         55
  58.8692         54
  59.0550         42
  59.2408         59
  59.4265         53
  59.6123         54
  59.7980         51
  59.9838         68
  60.0024         57