File: notebooks/data/xrd_data/ML_20220720_30_SJD_4_LaB6-1min.csv
;,2THETA,
5.0000,98
5.1858,105
5.3715,98
5.5573,80
5.7430,98
5.9288,64
6.1145,67
6.3003,51
6.4860,68
6.6718,56
6.8576,61
7.0433,70
7.2291,55
7.4148,56
7.6006,73
7.7863,75
7.9721,76
8.1579,70
8.3436,84
8.5294,53
8.7151,64
8.9009,74
9.0866,83
9.2724,88
9.4581,82
9.6439,74
9.8297,88
10.0154,95
10.2012,73
10.3869,94
10.5727,91
10.7584,93
10.9442,83
11.1299,94
11.3157,85
11.5015,79
11.6872,88
11.8730,78
12.0587,88
12.2445,72
12.4302,80
12.6160,71
12.8018,68
12.9875,76
13.1733,74
13.3590,70
13.5448,68
13.7305,76
13.9163,62
14.1020,76
14.2878,79
14.4736,68
14.6593,63
14.8451,57
15.0308,65
15.2166,48
15.4023,72
15.5881,73
15.7738,48
15.9596,57
16.1454,69
16.3311,64
16.5169,50
16.7026,59
16.8884,69
17.0741,60
17.2599,62
17.4457,70
17.6314,61
17.8172,62
18.0029,45
18.1887,60
18.3744,60
18.5602,52
18.7459,74
18.9317,46
19.1175,54
19.3032,61
19.4890,59
19.6747,63
19.8605,68
20.0462,63
20.2320,66
20.4177,68
20.6035,76
20.7893,74
20.9750,76
21.1608,73
21.3465,166
21.5323,72
21.7180,83
21.9038,80
22.0896,59
22.2753,87
22.4611,70
22.6468,76
22.8326,74
23.0183,59
23.2041,73
23.3898,98
23.5756,80
23.7614,84
23.9471,76
24.1329,80
24.3186,76
24.5044,71
24.6901,83
24.8759,86
25.0616,61
25.2474,57
25.4332,82
25.6189,76
25.8047,76
25.9904,97
26.1762,79
26.3619,58
26.5477,87
26.7335,70
26.9192,72
27.1050,74
27.2907,75
27.4765,66
27.6622,56
27.8480,66
28.0337,82
28.2195,53
28.4053,55
28.5910,62
28.7768,72
28.9625,61
29.1483,49
29.3340,59
29.5198,52
29.7055,56
29.8913,45
30.0771,57
30.2628,68
30.4486,86
30.6343,64
30.8201,52
31.0058,60
31.1916,61
31.3774,51
31.5631,51
31.7489,42
31.9346,43
32.1204,53
32.3061,56
32.4919,61
32.6776,41
32.8634,39
33.0492,55
33.2349,43
33.4207,43
33.6064,51
33.7922,37
33.9779,43
34.1637,34
34.3494,42
34.5352,41
34.7210,55
34.9067,45
35.0925,43
35.2782,29
35.4640,36
35.6497,35
35.8355,29
36.0213,45
36.2070,35
36.3928,39
36.5785,34
36.7643,26
36.9500,39
37.1358,30
37.3215,42
37.5073,34
37.6931,26
37.8788,34
38.0646,28
38.2503,32
38.4361,22
38.6218,28
38.8076,43
38.9933,31
39.1791,21
39.3649,27
39.5506,26
39.7364,26
39.9221,33
40.1079,22
40.2936,32
40.4794,25
40.6652,29
40.8509,33
41.0367,25
41.2224,26
41.4082,14
41.5939,29
41.7797,22
41.9654,24
42.1512,31
42.3370,29
42.5227,27
42.7085,26
42.8942,25
43.0800,29
43.2657,25
43.4515,36
43.6372,43
43.8230,33
44.0088,25
44.1945,32
44.3803,28
44.5660,34
44.7518,31
44.9375,31
45.1233,32
45.3091,23
45.4948,25
45.6806,27
45.8663,27
46.0521,27
46.2378,24
46.4236,18
46.6093,23
46.7951,30
46.9809,26
47.1666,26
47.3524,24
47.5381,22
47.7239,30
47.9096,15
48.0954,21
48.2811,24
48.4669,18
48.6527,29
48.8384,28
49.0242,34
49.2099,22
49.3957,22
49.5814,26
49.7672,21
49.9530,18
50.1387,28
50.3245,23
50.5102,33
50.6960,36
50.8817,17
51.0675,17
51.2532,30
51.4390,27
51.6248,27
51.8105,21
51.9963,25
52.1820,13
52.3678,22
52.5535,9
52.7393,30
52.9250,19
53.1108,22
53.2966,26
53.4823,14
53.6681,28
53.8538,20
54.0396,19
54.2253,25
54.4111,21
54.5969,14
54.7826,17
54.9684,16
55.1541,21
55.3399,17
55.5256,19
55.7114,21
55.8971,24
56.0829,17
56.2687,17
56.4544,14
56.6402,15
56.8259,15
57.0117,22
57.1974,14
57.3832,25
57.5689,23
57.7547,21
57.9405,21
58.1262,21
58.3120,28
58.4977,18
58.6835,27
58.8692,19
59.0550,23
59.2408,26
59.4265,10
59.6123,21
59.7980,23
59.9838,17
60.0024,15