File: notebooks/data/xrd_data/ML_20220718_16_SJD_4_LaB6-2min.csv
;,2THETA,
5.0000,136
5.1858,121
5.3715,123
5.5573,123
5.7430,106
5.9288,101
6.1145,92
6.3003,91
6.4860,76
6.6718,93
6.8576,86
7.0433,76
7.2291,75
7.4148,75
7.6006,89
7.7863,113
7.9721,113
8.1579,96
8.3436,96
8.5294,94
8.7151,92
8.9009,109
9.0866,126
9.2724,104
9.4581,125
9.6439,106
9.8297,108
10.0154,113
10.2012,117
10.3869,111
10.5727,119
10.7584,133
10.9442,122
11.1299,110
11.3157,135
11.5015,137
11.6872,110
11.8730,98
12.0587,114
12.2445,86
12.4302,101
12.6160,108
12.8018,100
12.9875,93
13.1733,101
13.3590,85
13.5448,99
13.7305,91
13.9163,99
14.1020,84
14.2878,82
14.4736,81
14.6593,88
14.8451,96
15.0308,84
15.2166,88
15.4023,90
15.5881,86
15.7738,86
15.9596,80
16.1454,76
16.3311,77
16.5169,82
16.7026,77
16.8884,68
17.0741,80
17.2599,73
17.4457,70
17.6314,86
17.8172,93
18.0029,89
18.1887,78
18.3744,89
18.5602,71
18.7459,88
18.9317,100
19.1175,98
19.3032,94
19.4890,81
19.6747,88
19.8605,86
20.0462,81
20.2320,84
20.4177,77
20.6035,104
20.7893,87
20.9750,101
21.1608,117
21.3465,248
21.5323,110
21.7180,94
21.9038,106
22.0896,100
22.2753,90
22.4611,97
22.6468,79
22.8326,86
23.0183,102
23.2041,86
23.3898,75
23.5756,82
23.7614,97
23.9471,97
24.1329,113
24.3186,108
24.5044,96
24.6901,90
24.8759,103
25.0616,100
25.2474,101
25.4332,91
25.6189,87
25.8047,99
25.9904,84
26.1762,102
26.3619,103
26.5477,86
26.7335,87
26.9192,95
27.1050,116
27.2907,104
27.4765,81
27.6622,81
27.8480,94
28.0337,81
28.2195,75
28.4053,88
28.5910,99
28.7768,99
28.9625,80
29.1483,62
29.3340,62
29.5198,86
29.7055,82
29.8913,83
30.0771,83
30.2628,81
30.4486,122
30.6343,85
30.8201,86
31.0058,78
31.1916,86
31.3774,75
31.5631,84
31.7489,76
31.9346,55
32.1204,62
32.3061,53
32.4919,87
32.6776,64
32.8634,66
33.0492,60
33.2349,47
33.4207,61
33.6064,54
33.7922,57
33.9779,68
34.1637,53
34.3494,55
34.5352,61
34.7210,65
34.9067,63
35.0925,63
35.2782,47
35.4640,47
35.6497,45
35.8355,46
36.0213,43
36.2070,43
36.3928,51
36.5785,49
36.7643,48
36.9500,48
37.1358,58
37.3215,49
37.5073,49
37.6931,53
37.8788,34
38.0646,38
38.2503,46
38.4361,39
38.6218,35
38.8076,48
38.9933,36
39.1791,26
39.3649,44
39.5506,44
39.7364,46
39.9221,33
40.1079,36
40.2936,34
40.4794,32
40.6652,32
40.8509,47
41.0367,43
41.2224,48
41.4082,36
41.5939,34
41.7797,36
41.9654,41
42.1512,44
42.3370,41
42.5227,31
42.7085,27
42.8942,33
43.0800,34
43.2657,41
43.4515,42
43.6372,63
43.8230,51
44.0088,30
44.1945,29
44.3803,50
44.5660,38
44.7518,45
44.9375,40
45.1233,40
45.3091,31
45.4948,19
45.6806,26
45.8663,31
46.0521,39
46.2378,36
46.4236,29
46.6093,32
46.7951,30
46.9809,34
47.1666,40
47.3524,34
47.5381,36
47.7239,28
47.9096,26
48.0954,28
48.2811,25
48.4669,33
48.6527,28
48.8384,31
49.0242,34
49.2099,33
49.3957,26
49.5814,34
49.7672,33
49.9530,32
50.1387,33
50.3245,31
50.5102,31
50.6960,30
50.8817,23
51.0675,26
51.2532,29
51.4390,46
51.6248,26
51.8105,42
51.9963,32
52.1820,19
52.3678,32
52.5535,34
52.7393,19
52.9250,34
53.1108,27
53.2966,29
53.4823,27
53.6681,33
53.8538,22
54.0396,40
54.2253,27
54.4111,25
54.5969,39
54.7826,31
54.9684,35
55.1541,16
55.3399,36
55.5256,35
55.7114,31
55.8971,30
56.0829,34
56.2687,28
56.4544,23
56.6402,30
56.8259,24
57.0117,21
57.1974,26
57.3832,30
57.5689,34
57.7547,29
57.9405,33
58.1262,30
58.3120,24
58.4977,25
58.6835,22
58.8692,26
59.0550,20
59.2408,26
59.4265,32
59.6123,28
59.7980,24
59.9838,21
60.0024,29