File: notebooks/data/xrd_data/ML_20220718_9_SJD_4_LaB6-2min.uxd
; (content of file Y:\Sam\Apurva-07-20-2022\puck4\ML_20220718_9_SJD_0_LaB6-2min.raw)
_FILEVERSION = 3
_SAMPLE = ML_20220718_9_SJD_0_LaB6-2min
_+SAMPLE =
_SITE = USA
_USER = Administrator
_GONIOMETER_CODE = 20
; Goniometer : D8 theta/2theta, stage : Unknown
_ATTACHMENTS_CODE = 0
_GONIOMETER_RADIUS = 200.5
_FIXED_DIVSLIT = 0.6
_FIXED_SAMPLESLIT = 0
_SOLLER_SLITS = 2
_FIXED_DETSLIT = 9.55
_MONOCHROMATOR = 0
; Incident beam monochromator : None
_SOLLER_SLITS_2 = N
_THIN_FILM = N
_BETA_FILTER = Y
_FIXED_ANTISLIT = 5.89
_ANALYZER_CODE = 0
; Received beam analyzer : None
_DATEMEASURED = "26-Jul-2022 10:03:50"
_WL_UNIT = A
_WL1 = 1.5406
_WL2 = 1.54439
_WL3 = 1.39222
_WLRATIO = 0.5
_ANODE = Cu
_V4_INF_CREATOR = XRDWizard
_V4_INF_CREATOR_VERSION = V2.9.0.22
_V4_INF_WIZARD_VERSION = V2.9.0.22
_V4_INF_WIZARD_ADDINS = V2.9.0.22
_V4_INF_WIZARD_DOCTYPE = XRD
_V4_INF_OSUSER = McQueenLab
_V4_INF_USER = Administrator
_V4_INF_SITE = USA
_V4_INF_SAMPLEID = ML_20220718_9_SJD_0_LaB6-2min

; Data for range 1
_DRIVE = COUPLED
_STEPTIME = 5.64
_STEPSIZE = 0.0185756
_STEPMODE = C
_START = 5
_THETA = 2.5
_2THETA = 5
_KHI = 0
_PHI = 0
_X = 0
_Y = 0
_Z = 0
_DETECTOR = 5
; Detector type : Unknown
_DETECTORSLIT = unkn
_AUX1 = 0
_AUX2 = 0
_AUX3 = 0
_TIMESTARTED = 15
_TEMP_RATE = -1
_TEMP_DELAY = -1
_KV = 40
_MA = 40
_RANGE_WL = 1.5406
_3DPLANE = 0
_V4_ADDITIONALDETECTOR = 257
_V4_PSD2THETA = 3.3732
_V4_PSDCHANNEL1 = 0
_V4_PSDAPERTURE = 12.68
_V4_PSDTYPE = 5
_V4_PSDFIXED = 0
_V4_COUNTERS_MASK = 4096
_V4_DRIVES_MASK = 0
_V4_ENCODERS_MASK = 0
_2THETACOUNTS = 1
; 2THETA  PSD
   5.0000        133
   5.1858        116
   5.3715        112
   5.5573         97
   5.7430        100
   5.9288         91
   6.1145         81
   6.3003         98
   6.4860        102
   6.6718         99
   6.8576         82
   7.0433         74
   7.2291         74
   7.4148         74
   7.6006         95
   7.7863         77
   7.9721         81
   8.1579        119
   8.3436         92
   8.5294        118
   8.7151         90
   8.9009         96
   9.0866         98
   9.2724        108
   9.4581        117
   9.6439        130
   9.8297        123
  10.0154        119
  10.2012        112
  10.3869        110
  10.5727        115
  10.7584        101
  10.9442        123
  11.1299        107
  11.3157        125
  11.5015        114
  11.6872        118
  11.8730        107
  12.0587        107
  12.2445        109
  12.4302        115
  12.6160        121
  12.8018        117
  12.9875         98
  13.1733         79
  13.3590        110
  13.5448         95
  13.7305         93
  13.9163         95
  14.1020        110
  14.2878         84
  14.4736         82
  14.6593         95
  14.8451         86
  15.0308         95
  15.2166         73
  15.4023         85
  15.5881         68
  15.7738         77
  15.9596         65
  16.1454         78
  16.3311         90
  16.5169         77
  16.7026         89
  16.8884         74
  17.0741         77
  17.2599         84
  17.4457         87
  17.6314         85
  17.8172         71
  18.0029         91
  18.1887         84
  18.3744         83
  18.5602         68
  18.7459         83
  18.9317         73
  19.1175         77
  19.3032         95
  19.4890         83
  19.6747         87
  19.8605         88
  20.0462         77
  20.2320         98
  20.4177         91
  20.6035        109
  20.7893         91
  20.9750         86
  21.1608        114
  21.3465        249
  21.5323         96
  21.7180         84
  21.9038         81
  22.0896         85
  22.2753        117
  22.4611         99
  22.6468        105
  22.8326         97
  23.0183         83
  23.2041         99
  23.3898        101
  23.5756        106
  23.7614        109
  23.9471         95
  24.1329        122
  24.3186        117
  24.5044         89
  24.6901        100
  24.8759        104
  25.0616        112
  25.2474        113
  25.4332         96
  25.6189         97
  25.8047        109
  25.9904         91
  26.1762         91
  26.3619         84
  26.5477         99
  26.7335         83
  26.9192        104
  27.1050         95
  27.2907        104
  27.4765         86
  27.6622         96
  27.8480         83
  28.0337         85
  28.2195         84
  28.4053         70
  28.5910         82
  28.7768         97
  28.9625         72
  29.1483         67
  29.3340         90
  29.5198         93
  29.7055         85
  29.8913         79
  30.0771         66
  30.2628         72
  30.4486        107
  30.6343         82
  30.8201         56
  31.0058         75
  31.1916         71
  31.3774         74
  31.5631         66
  31.7489         69
  31.9346         68
  32.1204         60
  32.3061         65
  32.4919         76
  32.6776         74
  32.8634         63
  33.0492         70
  33.2349         54
  33.4207         51
  33.6064         59
  33.7922         64
  33.9779         54
  34.1637         55
  34.3494         57
  34.5352         48
  34.7210         75
  34.9067         58
  35.0925         57
  35.2782         61
  35.4640         54
  35.6497         54
  35.8355         59
  36.0213         46
  36.2070         63
  36.3928         51
  36.5785         50
  36.7643         54
  36.9500         39
  37.1358         43
  37.3215         61
  37.5073         58
  37.6931         39
  37.8788         50
  38.0646         48
  38.2503         31
  38.4361         35
  38.6218         32
  38.8076         43
  38.9933         41
  39.1791         27
  39.3649         43
  39.5506         32
  39.7364         30
  39.9221         39
  40.1079         43
  40.2936         38
  40.4794         31
  40.6652         38
  40.8509         41
  41.0367         46
  41.2224         29
  41.4082         41
  41.5939         54
  41.7797         37
  41.9654         30
  42.1512         28
  42.3370         37
  42.5227         35
  42.7085         32
  42.8942         37
  43.0800         35
  43.2657         41
  43.4515         59
  43.6372         53
  43.8230         37
  44.0088         46
  44.1945         40
  44.3803         32
  44.5660         45
  44.7518         41
  44.9375         42
  45.1233         38
  45.3091         32
  45.4948         27
  45.6806         30
  45.8663         25
  46.0521         29
  46.2378         43
  46.4236         34
  46.6093         41
  46.7951         31
  46.9809         34
  47.1666         30
  47.3524         35
  47.5381         26
  47.7239         23
  47.9096         26
  48.0954         30
  48.2811         26
  48.4669         26
  48.6527         34
  48.8384         32
  49.0242         30
  49.2099         34
  49.3957         38
  49.5814         40
  49.7672         40
  49.9530         29
  50.1387         30
  50.3245         42
  50.5102         22
  50.6960         40
  50.8817         25
  51.0675         30
  51.2532         28
  51.4390         35
  51.6248         28
  51.8105         39
  51.9963         27
  52.1820         33
  52.3678         34
  52.5535         30
  52.7393         26
  52.9250         27
  53.1108         15
  53.2966         25
  53.4823         28
  53.6681         31
  53.8538         21
  54.0396         35
  54.2253         21
  54.4111         24
  54.5969         29
  54.7826         31
  54.9684         37
  55.1541         33
  55.3399         36
  55.5256         41
  55.7114         23
  55.8971         29
  56.0829         24
  56.2687         22
  56.4544         20
  56.6402         40
  56.8259         27
  57.0117         28
  57.1974         16
  57.3832         36
  57.5689         34
  57.7547         27
  57.9405         28
  58.1262         27
  58.3120         33
  58.4977         24
  58.6835         33
  58.8692         25
  59.0550         23
  59.2408         21
  59.4265         25
  59.6123         32
  59.7980         18
  59.9838         24
  60.0024         26