File: notebooks/data/xrd_data/ML_20220720_22_SJD_4_LaB6-1min.csv
;,2THETA,
5.0000,104
5.1858,77
5.3715,83
5.5573,84
5.7430,82
5.9288,84
6.1145,80
6.3003,62
6.4860,68
6.6718,76
6.8576,57
7.0433,59
7.2291,62
7.4148,62
7.6006,60
7.7863,80
7.9721,52
8.1579,50
8.3436,79
8.5294,61
8.7151,75
8.9009,77
9.0866,88
9.2724,88
9.4581,73
9.6439,85
9.8297,81
10.0154,81
10.2012,83
10.3869,96
10.5727,101
10.7584,86
10.9442,89
11.1299,78
11.3157,89
11.5015,89
11.6872,86
11.8730,77
12.0587,81
12.2445,85
12.4302,84
12.6160,93
12.8018,89
12.9875,68
13.1733,77
13.3590,71
13.5448,77
13.7305,79
13.9163,60
14.1020,67
14.2878,55
14.4736,57
14.6593,75
14.8451,64
15.0308,53
15.2166,67
15.4023,73
15.5881,59
15.7738,64
15.9596,55
16.1454,55
16.3311,50
16.5169,62
16.7026,63
16.8884,94
17.0741,57
17.2599,65
17.4457,59
17.6314,55
17.8172,64
18.0029,60
18.1887,69
18.3744,67
18.5602,52
18.7459,66
18.9317,66
19.1175,62
19.3032,69
19.4890,72
19.6747,88
19.8605,63
20.0462,65
20.2320,71
20.4177,77
20.6035,65
20.7893,73
20.9750,64
21.1608,102
21.3465,174
21.5323,71
21.7180,56
21.9038,85
22.0896,76
22.2753,76
22.4611,94
22.6468,79
22.8326,76
23.0183,75
23.2041,67
23.3898,84
23.5756,70
23.7614,79
23.9471,82
24.1329,78
24.3186,91
24.5044,60
24.6901,88
24.8759,84
25.0616,80
25.2474,61
25.4332,74
25.6189,71
25.8047,64
25.9904,65
26.1762,60
26.3619,59
26.5477,76
26.7335,77
26.9192,71
27.1050,71
27.2907,80
27.4765,64
27.6622,70
27.8480,69
28.0337,71
28.2195,78
28.4053,57
28.5910,61
28.7768,61
28.9625,66
29.1483,55
29.3340,61
29.5198,55
29.7055,60
29.8913,69
30.0771,58
30.2628,49
30.4486,95
30.6343,53
30.8201,52
31.0058,49
31.1916,60
31.3774,60
31.5631,37
31.7489,48
31.9346,55
32.1204,40
32.3061,48
32.4919,59
32.6776,35
32.8634,44
33.0492,52
33.2349,53
33.4207,41
33.6064,42
33.7922,44
33.9779,53
34.1637,38
34.3494,36
34.5352,41
34.7210,70
34.9067,45
35.0925,34
35.2782,30
35.4640,40
35.6497,29
35.8355,45
36.0213,40
36.2070,39
36.3928,46
36.5785,33
36.7643,38
36.9500,43
37.1358,40
37.3215,38
37.5073,43
37.6931,38
37.8788,33
38.0646,31
38.2503,35
38.4361,32
38.6218,35
38.8076,23
38.9933,28
39.1791,38
39.3649,33
39.5506,27
39.7364,25
39.9221,28
40.1079,33
40.2936,33
40.4794,24
40.6652,29
40.8509,24
41.0367,30
41.2224,30
41.4082,18
41.5939,30
41.7797,23
41.9654,31
42.1512,27
42.3370,29
42.5227,28
42.7085,37
42.8942,20
43.0800,24
43.2657,28
43.4515,37
43.6372,36
43.8230,25
44.0088,29
44.1945,28
44.3803,40
44.5660,31
44.7518,46
44.9375,22
45.1233,18
45.3091,33
45.4948,20
45.6806,20
45.8663,26
46.0521,22
46.2378,26
46.4236,15
46.6093,30
46.7951,19
46.9809,21
47.1666,19
47.3524,30
47.5381,25
47.7239,24
47.9096,11
48.0954,24
48.2811,25
48.4669,22
48.6527,20
48.8384,29
49.0242,24
49.2099,22
49.3957,20
49.5814,20
49.7672,17
49.9530,28
50.1387,21
50.3245,23
50.5102,26
50.6960,28
50.8817,26
51.0675,19
51.2532,20
51.4390,26
51.6248,22
51.8105,20
51.9963,28
52.1820,21
52.3678,16
52.5535,22
52.7393,31
52.9250,23
53.1108,19
53.2966,31
53.4823,20
53.6681,20
53.8538,30
54.0396,24
54.2253,15
54.4111,28
54.5969,18
54.7826,14
54.9684,20
55.1541,22
55.3399,16
55.5256,19
55.7114,22
55.8971,24
56.0829,20
56.2687,22
56.4544,18
56.6402,22
56.8259,22
57.0117,23
57.1974,18
57.3832,22
57.5689,24
57.7547,29
57.9405,16
58.1262,26
58.3120,17
58.4977,21
58.6835,26
58.8692,18
59.0550,20
59.2408,21
59.4265,24
59.6123,15
59.7980,21
59.9838,20
60.0024,28