File: notebooks/data/xrd_data/ML_20220718_55_SJD_4_LaB6-2min.uxd
; (content of file Y:\Sam\Apurva-07-20-2022\puck4\ML_20220718_55_SJD_4_LaB6-2min.raw)
_FILEVERSION = 3
_SAMPLE = ML_20220718_55_SJD_4_LaB6-2min
_+SAMPLE =
_SITE = USA
_USER = Administrator
_GONIOMETER_CODE = 20
; Goniometer : D8 theta/2theta, stage : Unknown
_ATTACHMENTS_CODE = 0
_GONIOMETER_RADIUS = 200.5
_FIXED_DIVSLIT = 0.6
_FIXED_SAMPLESLIT = 0
_SOLLER_SLITS = 2
_FIXED_DETSLIT = 9.55
_MONOCHROMATOR = 0
; Incident beam monochromator : None
_SOLLER_SLITS_2 = N
_THIN_FILM = N
_BETA_FILTER = Y
_FIXED_ANTISLIT = 5.89
_ANALYZER_CODE = 0
; Received beam analyzer : None
_DATEMEASURED = "26-Jul-2022 12:39:36"
_WL_UNIT = A
_WL1 = 1.5406
_WL2 = 1.54439
_WL3 = 1.39222
_WLRATIO = 0.5
_ANODE = Cu
_V4_INF_CREATOR = XRDWizard
_V4_INF_CREATOR_VERSION = V2.9.0.22
_V4_INF_WIZARD_VERSION = V2.9.0.22
_V4_INF_WIZARD_ADDINS = V2.9.0.22
_V4_INF_WIZARD_DOCTYPE = XRD
_V4_INF_OSUSER = McQueenLab
_V4_INF_USER = Administrator
_V4_INF_SITE = USA
_V4_INF_SAMPLEID = ML_20220718_55_SJD_4_LaB6-2min

; Data for range 1
_DRIVE = COUPLED
_STEPTIME = 5.64
_STEPSIZE = 0.0185756
_STEPMODE = C
_START = 5
_THETA = 2.5
_2THETA = 5
_KHI = 0
_PHI = 0
_X = 0
_Y = 0
_Z = 0
_DETECTOR = 5
; Detector type : Unknown
_DETECTORSLIT = unkn
_AUX1 = 0
_AUX2 = 0
_AUX3 = 0
_TIMESTARTED = 15
_TEMP_RATE = -1
_TEMP_DELAY = -1
_KV = 40
_MA = 40
_RANGE_WL = 1.5406
_3DPLANE = 0
_V4_ADDITIONALDETECTOR = 257
_V4_PSD2THETA = 3.4187
_V4_PSDCHANNEL1 = 0
_V4_PSDAPERTURE = 12.68
_V4_PSDTYPE = 5
_V4_PSDFIXED = 0
_V4_COUNTERS_MASK = 4096
_V4_DRIVES_MASK = 0
_V4_ENCODERS_MASK = 0
_2THETACOUNTS = 1
; 2THETA  PSD
   5.0000        138
   5.1858        114
   5.3715        120
   5.5573        110
   5.7430        101
   5.9288        101
   6.1145         73
   6.3003         85
   6.4860         89
   6.6718         79
   6.8576         72
   7.0433         84
   7.2291         81
   7.4148         85
   7.6006         88
   7.7863         80
   7.9721         85
   8.1579         92
   8.3436        102
   8.5294         84
   8.7151        109
   8.9009        105
   9.0866        109
   9.2724        106
   9.4581        115
   9.6439         82
   9.8297        107
  10.0154        120
  10.2012         83
  10.3869        112
  10.5727        129
  10.7584        100
  10.9442        113
  11.1299        112
  11.3157        117
  11.5015        118
  11.6872        121
  11.8730         99
  12.0587        118
  12.2445         99
  12.4302         91
  12.6160        101
  12.8018        109
  12.9875        109
  13.1733        100
  13.3590         94
  13.5448        122
  13.7305         87
  13.9163         95
  14.1020         77
  14.2878         90
  14.4736         80
  14.6593         85
  14.8451         86
  15.0308         81
  15.2166        108
  15.4023         73
  15.5881         75
  15.7738         73
  15.9596         92
  16.1454         90
  16.3311         81
  16.5169         74
  16.7026         80
  16.8884         94
  17.0741         95
  17.2599         76
  17.4457         86
  17.6314         81
  17.8172         75
  18.0029         86
  18.1887         71
  18.3744         84
  18.5602         99
  18.7459         82
  18.9317         87
  19.1175         91
  19.3032         81
  19.4890         90
  19.6747        106
  19.8605         97
  20.0462         88
  20.2320         77
  20.4177         98
  20.6035         83
  20.7893         81
  20.9750         94
  21.1608        114
  21.3465        243
  21.5323        100
  21.7180        104
  21.9038         91
  22.0896         92
  22.2753         92
  22.4611         76
  22.6468         89
  22.8326        112
  23.0183        108
  23.2041         94
  23.3898        107
  23.5756        113
  23.7614         92
  23.9471         84
  24.1329         79
  24.3186        109
  24.5044         99
  24.6901        107
  24.8759         96
  25.0616         92
  25.2474        102
  25.4332         90
  25.6189         99
  25.8047        107
  25.9904        104
  26.1762         78
  26.3619         94
  26.5477         89
  26.7335         92
  26.9192        100
  27.1050         94
  27.2907        102
  27.4765        102
  27.6622         87
  27.8480         79
  28.0337         98
  28.2195         82
  28.4053         78
  28.5910         72
  28.7768         86
  28.9625         74
  29.1483         86
  29.3340         79
  29.5198         79
  29.7055         90
  29.8913         68
  30.0771         92
  30.2628         80
  30.4486        124
  30.6343         90
  30.8201         71
  31.0058         65
  31.1916         59
  31.3774         63
  31.5631         71
  31.7489         59
  31.9346         52
  32.1204         73
  32.3061         78
  32.4919         61
  32.6776         57
  32.8634         48
  33.0492         55
  33.2349         59
  33.4207         53
  33.6064         48
  33.7922         56
  33.9779         53
  34.1637         54
  34.3494         65
  34.5352         51
  34.7210         81
  34.9067         60
  35.0925         57
  35.2782         52
  35.4640         53
  35.6497         50
  35.8355         57
  36.0213         42
  36.2070         43
  36.3928         46
  36.5785         41
  36.7643         41
  36.9500         51
  37.1358         45
  37.3215         46
  37.5073         53
  37.6931         37
  37.8788         34
  38.0646         44
  38.2503         34
  38.4361         46
  38.6218         49
  38.8076         38
  38.9933         29
  39.1791         36
  39.3649         35
  39.5506         37
  39.7364         34
  39.9221         35
  40.1079         31
  40.2936         37
  40.4794         39
  40.6652         35
  40.8509         38
  41.0367         36
  41.2224         51
  41.4082         39
  41.5939         43
  41.7797         38
  41.9654         42
  42.1512         45
  42.3370         31
  42.5227         23
  42.7085         45
  42.8942         37
  43.0800         38
  43.2657         45
  43.4515         35
  43.6372         52
  43.8230         33
  44.0088         39
  44.1945         36
  44.3803         27
  44.5660         46
  44.7518         34
  44.9375         30
  45.1233         29
  45.3091         26
  45.4948         31
  45.6806         38
  45.8663         34
  46.0521         37
  46.2378         28
  46.4236         33
  46.6093         34
  46.7951         26
  46.9809         36
  47.1666         37
  47.3524         29
  47.5381         32
  47.7239         27
  47.9096         26
  48.0954         36
  48.2811         29
  48.4669         40
  48.6527         36
  48.8384         30
  49.0242         42
  49.2099         33
  49.3957         29
  49.5814         38
  49.7672         26
  49.9530         31
  50.1387         35
  50.3245         28
  50.5102         25
  50.6960         28
  50.8817         29
  51.0675         28
  51.2532         32
  51.4390         30
  51.6248         20
  51.8105         31
  51.9963         37
  52.1820         32
  52.3678         34
  52.5535         22
  52.7393         34
  52.9250         34
  53.1108         26
  53.2966         19
  53.4823         30
  53.6681         23
  53.8538         23
  54.0396         22
  54.2253         40
  54.4111         24
  54.5969         28
  54.7826         25
  54.9684         27
  55.1541         23
  55.3399         24
  55.5256         24
  55.7114         26
  55.8971         25
  56.0829         29
  56.2687         42
  56.4544         34
  56.6402         27
  56.8259         30
  57.0117         22
  57.1974         33
  57.3832         19
  57.5689         26
  57.7547         24
  57.9405         25
  58.1262         28
  58.3120         23
  58.4977         25
  58.6835         23
  58.8692         23
  59.0550         21
  59.2408         31
  59.4265         25
  59.6123         25
  59.7980         25
  59.9838         33
  60.0024         33