File: notebooks/data/xrd_data/ML_20220720_4_SJD_4_LaB6-1min.csv
;,2THETA,
5.0000,105
5.1858,108
5.3715,89
5.5573,89
5.7430,82
5.9288,76
6.1145,56
6.3003,62
6.4860,58
6.6718,63
6.8576,74
7.0433,44
7.2291,69
7.4148,51
7.6006,65
7.7863,58
7.9721,67
8.1579,74
8.3436,70
8.5294,75
8.7151,73
8.9009,67
9.0866,68
9.2724,79
9.4581,78
9.6439,94
9.8297,92
10.0154,98
10.2012,86
10.3869,86
10.5727,84
10.7584,103
10.9442,86
11.1299,85
11.3157,89
11.5015,92
11.6872,90
11.8730,85
12.0587,90
12.2445,76
12.4302,80
12.6160,82
12.8018,69
12.9875,75
13.1733,59
13.3590,69
13.5448,82
13.7305,66
13.9163,68
14.1020,63
14.2878,75
14.4736,55
14.6593,59
14.8451,58
15.0308,63
15.2166,49
15.4023,51
15.5881,67
15.7738,64
15.9596,73
16.1454,53
16.3311,55
16.5169,66
16.7026,59
16.8884,54
17.0741,55
17.2599,61
17.4457,62
17.6314,66
17.8172,58
18.0029,68
18.1887,53
18.3744,59
18.5602,53
18.7459,71
18.9317,57
19.1175,50
19.3032,55
19.4890,61
19.6747,61
19.8605,65
20.0462,58
20.2320,73
20.4177,75
20.6035,54
20.7893,71
20.9750,79
21.1608,86
21.3465,171
21.5323,75
21.7180,63
21.9038,75
22.0896,63
22.2753,70
22.4611,76
22.6468,60
22.8326,66
23.0183,81
23.2041,80
23.3898,52
23.5756,71
23.7614,77
23.9471,81
24.1329,78
24.3186,94
24.5044,74
24.6901,78
24.8759,92
25.0616,68
25.2474,60
25.4332,70
25.6189,82
25.8047,73
25.9904,60
26.1762,67
26.3619,73
26.5477,44
26.7335,56
26.9192,80
27.1050,72
27.2907,69
27.4765,57
27.6622,74
27.8480,66
28.0337,72
28.2195,65
28.4053,67
28.5910,71
28.7768,51
28.9625,48
29.1483,74
29.3340,63
29.5198,56
29.7055,54
29.8913,66
30.0771,48
30.2628,61
30.4486,108
30.6343,57
30.8201,55
31.0058,66
31.1916,60
31.3774,58
31.5631,36
31.7489,55
31.9346,34
32.1204,55
32.3061,55
32.4919,48
32.6776,42
32.8634,34
33.0492,32
33.2349,38
33.4207,35
33.6064,34
33.7922,41
33.9779,45
34.1637,33
34.3494,44
34.5352,39
34.7210,54
34.9067,42
35.0925,37
35.2782,45
35.4640,39
35.6497,40
35.8355,45
36.0213,37
36.2070,33
36.3928,16
36.5785,30
36.7643,41
36.9500,27
37.1358,32
37.3215,38
37.5073,41
37.6931,32
37.8788,38
38.0646,32
38.2503,28
38.4361,28
38.6218,24
38.8076,30
38.9933,34
39.1791,27
39.3649,36
39.5506,21
39.7364,26
39.9221,21
40.1079,32
40.2936,29
40.4794,26
40.6652,32
40.8509,27
41.0367,19
41.2224,30
41.4082,30
41.5939,19
41.7797,28
41.9654,22
42.1512,26
42.3370,24
42.5227,22
42.7085,25
42.8942,27
43.0800,21
43.2657,31
43.4515,36
43.6372,34
43.8230,27
44.0088,26
44.1945,34
44.3803,22
44.5660,20
44.7518,35
44.9375,30
45.1233,27
45.3091,28
45.4948,28
45.6806,27
45.8663,23
46.0521,21
46.2378,30
46.4236,27
46.6093,29
46.7951,29
46.9809,23
47.1666,19
47.3524,22
47.5381,29
47.7239,28
47.9096,21
48.0954,26
48.2811,19
48.4669,29
48.6527,27
48.8384,19
49.0242,30
49.2099,21
49.3957,22
49.5814,19
49.7672,32
49.9530,20
50.1387,27
50.3245,27
50.5102,18
50.6960,18
50.8817,18
51.0675,31
51.2532,28
51.4390,21
51.6248,26
51.8105,23
51.9963,18
52.1820,17
52.3678,24
52.5535,29
52.7393,20
52.9250,21
53.1108,30
53.2966,26
53.4823,30
53.6681,20
53.8538,21
54.0396,25
54.2253,27
54.4111,27
54.5969,21
54.7826,26
54.9684,16
55.1541,27
55.3399,20
55.5256,25
55.7114,15
55.8971,18
56.0829,22
56.2687,23
56.4544,26
56.6402,19
56.8259,21
57.0117,17
57.1974,21
57.3832,15
57.5689,18
57.7547,25
57.9405,29
58.1262,20
58.3120,14
58.4977,21
58.6835,14
58.8692,23
59.0550,18
59.2408,25
59.4265,28
59.6123,18
59.7980,20
59.9838,18
60.0024,18