File: notebooks/data/xrd_data/ML_20220720_18_SJD_4_LaB6-1min.uxd
; (content of file Y:\Sam\Apurva-07-20-2022\puck2\ML_20220720_18_SJD_0_LaB6-1min.raw)
_FILEVERSION = 3
_SAMPLE = ML_20220720_18_SJD_0_LaB6-1mi
_+SAMPLE =
_SITE = USA
_USER = Administrator
_GONIOMETER_CODE = 20
; Goniometer : D8 theta/2theta, stage : Unknown
_ATTACHMENTS_CODE = 0
_GONIOMETER_RADIUS = 200.5
_FIXED_DIVSLIT = 0.6
_FIXED_SAMPLESLIT = 0
_SOLLER_SLITS = 2
_FIXED_DETSLIT = 9.55
_MONOCHROMATOR = 0
; Incident beam monochromator : None
_SOLLER_SLITS_2 = N
_THIN_FILM = N
_BETA_FILTER = Y
_FIXED_ANTISLIT = 5.89
_ANALYZER_CODE = 0
; Received beam analyzer : None
_DATEMEASURED = "25-Jul-2022 18:19:54"
_WL_UNIT = A
_WL1 = 1.5406
_WL2 = 1.54439
_WL3 = 1.39222
_WLRATIO = 0.5
_ANODE = Cu
_V4_INF_CREATOR = XRDWizard
_V4_INF_CREATOR_VERSION = V2.9.0.22
_V4_INF_WIZARD_VERSION = V2.9.0.22
_V4_INF_WIZARD_ADDINS = V2.9.0.22
_V4_INF_WIZARD_DOCTYPE = XRD
_V4_INF_OSUSER = McQueenLab
_V4_INF_USER = Administrator
_V4_INF_SITE = USA
_V4_INF_SAMPLEID = ML_20220720_18_SJD_0_LaB6-1mi

; Data for range 1
_DRIVE = COUPLED
_STEPTIME = 4.23
_STEPSIZE = 0.0185756
_STEPMODE = C
_START = 5
_THETA = 2.5
_2THETA = 5
_KHI = 0
_PHI = 0
_X = 0
_Y = 0
_Z = 0
_DETECTOR = 5
; Detector type : Unknown
_DETECTORSLIT = unkn
_AUX1 = 0
_AUX2 = 0
_AUX3 = 0
_TIMESTARTED = 15
_TEMP_RATE = -1
_TEMP_DELAY = -1
_KV = 40
_MA = 40
_RANGE_WL = 1.5406
_3DPLANE = 0
_V4_ADDITIONALDETECTOR = 257
_V4_PSD2THETA = 3.4307
_V4_PSDCHANNEL1 = 0
_V4_PSDAPERTURE = 12.68
_V4_PSDTYPE = 5
_V4_PSDFIXED = 0
_V4_COUNTERS_MASK = 4096
_V4_DRIVES_MASK = 0
_V4_ENCODERS_MASK = 0
_2THETACOUNTS = 1
; 2THETA  PSD
   5.0000         89
   5.1858         83
   5.3715         93
   5.5573         89
   5.7430         63
   5.9288         68
   6.1145         72
   6.3003         72
   6.4860         70
   6.6718         75
   6.8576         54
   7.0433         55
   7.2291         55
   7.4148         67
   7.6006         76
   7.7863         60
   7.9721         64
   8.1579         71
   8.3436         70
   8.5294         86
   8.7151         79
   8.9009         77
   9.0866         85
   9.2724         77
   9.4581         91
   9.6439         76
   9.8297         74
  10.0154         67
  10.2012         68
  10.3869        105
  10.5727         82
  10.7584         98
  10.9442         83
  11.1299         81
  11.3157         87
  11.5015         87
  11.6872        103
  11.8730         92
  12.0587         81
  12.2445         80
  12.4302         67
  12.6160         84
  12.8018         88
  12.9875         70
  13.1733         61
  13.3590         70
  13.5448         77
  13.7305         67
  13.9163         67
  14.1020         79
  14.2878         74
  14.4736         67
  14.6593         53
  14.8451         54
  15.0308         64
  15.2166         64
  15.4023         65
  15.5881         53
  15.7738         72
  15.9596         55
  16.1454         69
  16.3311         64
  16.5169         64
  16.7026         44
  16.8884         62
  17.0741         56
  17.2599         51
  17.4457         60
  17.6314         73
  17.8172         64
  18.0029         60
  18.1887         52
  18.3744         53
  18.5602         60
  18.7459         66
  18.9317         79
  19.1175         70
  19.3032         59
  19.4890         63
  19.6747         73
  19.8605         59
  20.0462         66
  20.2320         77
  20.4177         71
  20.6035         63
  20.7893         77
  20.9750         88
  21.1608         95
  21.3465        195
  21.5323         68
  21.7180         61
  21.9038         64
  22.0896         83
  22.2753         55
  22.4611         80
  22.6468         63
  22.8326         73
  23.0183         76
  23.2041         81
  23.3898         88
  23.5756         77
  23.7614         82
  23.9471         97
  24.1329         77
  24.3186         94
  24.5044         82
  24.6901         64
  24.8759         73
  25.0616         73
  25.2474         83
  25.4332         51
  25.6189         82
  25.8047         68
  25.9904         60
  26.1762         76
  26.3619         76
  26.5477         79
  26.7335         73
  26.9192         72
  27.1050         60
  27.2907         68
  27.4765         69
  27.6622         53
  27.8480         83
  28.0337         72
  28.2195         48
  28.4053         50
  28.5910         54
  28.7768         78
  28.9625         54
  29.1483         65
  29.3340         61
  29.5198         71
  29.7055         64
  29.8913         51
  30.0771         58
  30.2628         58
  30.4486         93
  30.6343         58
  30.8201         53
  31.0058         52
  31.1916         53
  31.3774         51
  31.5631         34
  31.7489         48
  31.9346         43
  32.1204         54
  32.3061         61
  32.4919         50
  32.6776         42
  32.8634         37
  33.0492         47
  33.2349         44
  33.4207         52
  33.6064         43
  33.7922         43
  33.9779         38
  34.1637         46
  34.3494         48
  34.5352         28
  34.7210         61
  34.9067         42
  35.0925         31
  35.2782         31
  35.4640         41
  35.6497         51
  35.8355         39
  36.0213         37
  36.2070         47
  36.3928         35
  36.5785         32
  36.7643         28
  36.9500         27
  37.1358         29
  37.3215         49
  37.5073         52
  37.6931         26
  37.8788         33
  38.0646         41
  38.2503         27
  38.4361         34
  38.6218         44
  38.8076         26
  38.9933         40
  39.1791         33
  39.3649         24
  39.5506         41
  39.7364         22
  39.9221         32
  40.1079         27
  40.2936         41
  40.4794         36
  40.6652         25
  40.8509         28
  41.0367         43
  41.2224         32
  41.4082         25
  41.5939         24
  41.7797         28
  41.9654         24
  42.1512         34
  42.3370         28
  42.5227         21
  42.7085         24
  42.8942         24
  43.0800         32
  43.2657         34
  43.4515         34
  43.6372         24
  43.8230         26
  44.0088         28
  44.1945         17
  44.3803         24
  44.5660         23
  44.7518         25
  44.9375         27
  45.1233         22
  45.3091         21
  45.4948         27
  45.6806         23
  45.8663         24
  46.0521         24
  46.2378         17
  46.4236         29
  46.6093         16
  46.7951         27
  46.9809         22
  47.1666         31
  47.3524         17
  47.5381         33
  47.7239         18
  47.9096         26
  48.0954         29
  48.2811         28
  48.4669         26
  48.6527         23
  48.8384         18
  49.0242         29
  49.2099         24
  49.3957         26
  49.5814         20
  49.7672         27
  49.9530         19
  50.1387         25
  50.3245         27
  50.5102         21
  50.6960         28
  50.8817         19
  51.0675         18
  51.2532         25
  51.4390         22
  51.6248         30
  51.8105         31
  51.9963         34
  52.1820         17
  52.3678         20
  52.5535         11
  52.7393         24
  52.9250         18
  53.1108         24
  53.2966         16
  53.4823         28
  53.6681         16
  53.8538         20
  54.0396         21
  54.2253         24
  54.4111         20
  54.5969         24
  54.7826         17
  54.9684         21
  55.1541         18
  55.3399         25
  55.5256         18
  55.7114         28
  55.8971         23
  56.0829         21
  56.2687         30
  56.4544         18
  56.6402         24
  56.8259         21
  57.0117         20
  57.1974         22
  57.3832         19
  57.5689         30
  57.7547         22
  57.9405         19
  58.1262         22
  58.3120         15
  58.4977         23
  58.6835         27
  58.8692         22
  59.0550         17
  59.2408         20
  59.4265         17
  59.6123         14
  59.7980         22
  59.9838         23
  60.0024         19