File: notebooks/data/xrd_data/ML_20220718_49_SJD_4_LaB6-1min.csv
;,2THETA,
5.0000,99
5.1858,95
5.3715,96
5.5573,86
5.7430,91
5.9288,70
6.1145,71
6.3003,64
6.4860,66
6.6718,45
6.8576,57
7.0433,59
7.2291,65
7.4148,65
7.6006,71
7.7863,77
7.9721,61
8.1579,67
8.3436,74
8.5294,61
8.7151,82
8.9009,64
9.0866,78
9.2724,87
9.4581,75
9.6439,85
9.8297,88
10.0154,109
10.2012,83
10.3869,82
10.5727,84
10.7584,75
10.9442,82
11.1299,104
11.3157,86
11.5015,93
11.6872,84
11.8730,81
12.0587,78
12.2445,82
12.4302,80
12.6160,66
12.8018,68
12.9875,67
13.1733,83
13.3590,60
13.5448,81
13.7305,66
13.9163,71
14.1020,74
14.2878,53
14.4736,57
14.6593,63
14.8451,65
15.0308,51
15.2166,57
15.4023,61
15.5881,52
15.7738,43
15.9596,70
16.1454,58
16.3311,70
16.5169,66
16.7026,75
16.8884,64
17.0741,51
17.2599,44
17.4457,54
17.6314,62
17.8172,69
18.0029,64
18.1887,50
18.3744,66
18.5602,61
18.7459,58
18.9317,71
19.1175,66
19.3032,61
19.4890,67
19.6747,63
19.8605,57
20.0462,65
20.2320,53
20.4177,78
20.6035,65
20.7893,53
20.9750,78
21.1608,82
21.3465,194
21.5323,79
21.7180,70
21.9038,63
22.0896,78
22.2753,73
22.4611,69
22.6468,83
22.8326,73
23.0183,58
23.2041,75
23.3898,85
23.5756,74
23.7614,89
23.9471,73
24.1329,81
24.3186,84
24.5044,73
24.6901,81
24.8759,76
25.0616,80
25.2474,71
25.4332,81
25.6189,72
25.8047,68
25.9904,55
26.1762,68
26.3619,66
26.5477,77
26.7335,47
26.9192,54
27.1050,83
27.2907,100
27.4765,62
27.6622,65
27.8480,67
28.0337,59
28.2195,62
28.4053,71
28.5910,55
28.7768,61
28.9625,60
29.1483,59
29.3340,62
29.5198,57
29.7055,54
29.8913,47
30.0771,51
30.2628,57
30.4486,86
30.6343,56
30.8201,53
31.0058,51
31.1916,54
31.3774,51
31.5631,54
31.7489,66
31.9346,41
32.1204,53
32.3061,44
32.4919,56
32.6776,40
32.8634,51
33.0492,41
33.2349,42
33.4207,49
33.6064,46
33.7922,38
33.9779,46
34.1637,36
34.3494,36
34.5352,42
34.7210,43
34.9067,37
35.0925,40
35.2782,35
35.4640,44
35.6497,37
35.8355,43
36.0213,40
36.2070,40
36.3928,38
36.5785,35
36.7643,39
36.9500,31
37.1358,34
37.3215,46
37.5073,34
37.6931,20
37.8788,36
38.0646,22
38.2503,23
38.4361,34
38.6218,36
38.8076,37
38.9933,25
39.1791,30
39.3649,26
39.5506,30
39.7364,41
39.9221,24
40.1079,29
40.2936,40
40.4794,35
40.6652,43
40.8509,23
41.0367,31
41.2224,25
41.4082,28
41.5939,22
41.7797,29
41.9654,29
42.1512,19
42.3370,27
42.5227,34
42.7085,21
42.8942,24
43.0800,27
43.2657,26
43.4515,31
43.6372,35
43.8230,25
44.0088,24
44.1945,23
44.3803,18
44.5660,21
44.7518,25
44.9375,21
45.1233,27
45.3091,23
45.4948,29
45.6806,29
45.8663,24
46.0521,30
46.2378,32
46.4236,26
46.6093,21
46.7951,21
46.9809,27
47.1666,27
47.3524,25
47.5381,25
47.7239,29
47.9096,22
48.0954,30
48.2811,19
48.4669,29
48.6527,20
48.8384,22
49.0242,31
49.2099,30
49.3957,26
49.5814,23
49.7672,27
49.9530,24
50.1387,30
50.3245,25
50.5102,15
50.6960,24
50.8817,20
51.0675,14
51.2532,22
51.4390,26
51.6248,25
51.8105,30
51.9963,19
52.1820,27
52.3678,28
52.5535,27
52.7393,12
52.9250,19
53.1108,19
53.2966,10
53.4823,22
53.6681,25
53.8538,18
54.0396,24
54.2253,19
54.4111,18
54.5969,18
54.7826,21
54.9684,33
55.1541,22
55.3399,16
55.5256,20
55.7114,25
55.8971,21
56.0829,21
56.2687,21
56.4544,18
56.6402,18
56.8259,18
57.0117,17
57.1974,15
57.3832,29
57.5689,10
57.7547,22
57.9405,29
58.1262,19
58.3120,18
58.4977,14
58.6835,20
58.8692,25
59.0550,21
59.2408,18
59.4265,28
59.6123,26
59.7980,26
59.9838,23
60.0024,18