File: notebooks/data/xrd_data/ML_20220721_31_SJD_4_LaB6-4min.uxd
; (content of file Y:\Sam\Apurva-07-20-2022\puck1\ML_20220721_31_SJD_0_LaB6-4min.raw)
_FILEVERSION = 3
_SAMPLE = ML_20220721_31_SJD_0_LaB6-4min
_+SAMPLE =
_SITE = USA
_USER = Administrator
_GONIOMETER_CODE = 20
; Goniometer : D8 theta/2theta, stage : Unknown
_ATTACHMENTS_CODE = 0
_GONIOMETER_RADIUS = 200.5
_FIXED_DIVSLIT = 0.6
_FIXED_SAMPLESLIT = 0
_SOLLER_SLITS = 2
_FIXED_DETSLIT = 9.55
_MONOCHROMATOR = 0
; Incident beam monochromator : None
_SOLLER_SLITS_2 = N
_THIN_FILM = N
_BETA_FILTER = Y
_FIXED_ANTISLIT = 5.89
_ANALYZER_CODE = 0
; Received beam analyzer : None
_DATEMEASURED = "25-Jul-2022 16:11:29"
_WL_UNIT = A
_WL1 = 1.5406
_WL2 = 1.54439
_WL3 = 1.39222
_WLRATIO = 0.5
_ANODE = Cu
_V4_INF_CREATOR = XRDWizard
_V4_INF_CREATOR_VERSION = V2.9.0.22
_V4_INF_WIZARD_VERSION = V2.9.0.22
_V4_INF_WIZARD_ADDINS = V2.9.0.22
_V4_INF_WIZARD_DOCTYPE = XRD
_V4_INF_OSUSER = McQueenLab
_V4_INF_USER = Administrator
_V4_INF_SITE = USA
_V4_INF_SAMPLEID = ML_20220721_31_SJD_0_LaB6-4min

; Data for range 1
_DRIVE = COUPLED
_STEPTIME = 11.28
_STEPSIZE = 0.0185756
_STEPMODE = C
_START = 5
_THETA = 2.5
_2THETA = 5
_KHI = 0
_PHI = 0
_X = 0
_Y = 0
_Z = 0
_DETECTOR = 5
; Detector type : Unknown
_DETECTORSLIT = unkn
_AUX1 = 0
_AUX2 = 0
_AUX3 = 0
_TIMESTARTED = 15
_TEMP_RATE = -1
_TEMP_DELAY = -1
_KV = 40
_MA = 40
_RANGE_WL = 1.5406
_3DPLANE = 0
_V4_ADDITIONALDETECTOR = 257
_V4_PSD2THETA = 3.365
_V4_PSDCHANNEL1 = 0
_V4_PSDAPERTURE = 12.68
_V4_PSDTYPE = 5
_V4_PSDFIXED = 0
_V4_COUNTERS_MASK = 4096
_V4_DRIVES_MASK = 0
_V4_ENCODERS_MASK = 0
_2THETACOUNTS = 1
; 2THETA  PSD
   5.0000        275
   5.1858        272
   5.3715        209
   5.5573        204
   5.7430        223
   5.9288        187
   6.1145        194
   6.3003        182
   6.4860        215
   6.6718        163
   6.8576        177
   7.0433        155
   7.2291        149
   7.4148        160
   7.6006        152
   7.7863        180
   7.9721        199
   8.1579        196
   8.3436        195
   8.5294        190
   8.7151        191
   8.9009        236
   9.0866        213
   9.2724        211
   9.4581        227
   9.6439        205
   9.8297        246
  10.0154        226
  10.2012        253
  10.3869        208
  10.5727        241
  10.7584        239
  10.9442        189
  11.1299        260
  11.3157        243
  11.5015        246
  11.6872        229
  11.8730        235
  12.0587        233
  12.2445        207
  12.4302        199
  12.6160        227
  12.8018        229
  12.9875        225
  13.1733        201
  13.3590        227
  13.5448        200
  13.7305        207
  13.9163        183
  14.1020        176
  14.2878        183
  14.4736        186
  14.6593        173
  14.8451        148
  15.0308        142
  15.2166        162
  15.4023        156
  15.5881        166
  15.7738        164
  15.9596        155
  16.1454        153
  16.3311        161
  16.5169        148
  16.7026        170
  16.8884        160
  17.0741        178
  17.2599        173
  17.4457        165
  17.6314        155
  17.8172        173
  18.0029        143
  18.1887        159
  18.3744        172
  18.5602        161
  18.7459        184
  18.9317        168
  19.1175        160
  19.3032        159
  19.4890        196
  19.6747        161
  19.8605        157
  20.0462        204
  20.2320        163
  20.4177        181
  20.6035        158
  20.7893        191
  20.9750        219
  21.1608        246
  21.3465        543
  21.5323        244
  21.7180        204
  21.9038        172
  22.0896        199
  22.2753        217
  22.4611        183
  22.6468        206
  22.8326        202
  23.0183        200
  23.2041        218
  23.3898        204
  23.5756        202
  23.7614        197
  23.9471        211
  24.1329        233
  24.3186        217
  24.5044        199
  24.6901        201
  24.8759        214
  25.0616        185
  25.2474        209
  25.4332        197
  25.6189        189
  25.8047        215
  25.9904        188
  26.1762        172
  26.3619        189
  26.5477        209
  26.7335        184
  26.9192        177
  27.1050        183
  27.2907        195
  27.4765        181
  27.6622        161
  27.8480        157
  28.0337        195
  28.2195        175
  28.4053        165
  28.5910        163
  28.7768        177
  28.9625        170
  29.1483        155
  29.3340        156
  29.5198        149
  29.7055        149
  29.8913        151
  30.0771        160
  30.2628        175
  30.4486        242
  30.6343        164
  30.8201        141
  31.0058        155
  31.1916        140
  31.3774        146
  31.5631        144
  31.7489        125
  31.9346        150
  32.1204        116
  32.3061        146
  32.4919        148
  32.6776        122
  32.8634        113
  33.0492        123
  33.2349        123
  33.4207        135
  33.6064        108
  33.7922        145
  33.9779        112
  34.1637        117
  34.3494        111
  34.5352        129
  34.7210        146
  34.9067        130
  35.0925        116
  35.2782        100
  35.4640        117
  35.6497        106
  35.8355        101
  36.0213        134
  36.2070        104
  36.3928        103
  36.5785         90
  36.7643         87
  36.9500         86
  37.1358         74
  37.3215        111
  37.5073        110
  37.6931         73
  37.8788         78
  38.0646         83
  38.2503         80
  38.4361         86
  38.6218         78
  38.8076         91
  38.9933         76
  39.1791        101
  39.3649         85
  39.5506         94
  39.7364         82
  39.9221         88
  40.1079         76
  40.2936         86
  40.4794         76
  40.6652         85
  40.8509         89
  41.0367         86
  41.2224         80
  41.4082         79
  41.5939         96
  41.7797         76
  41.9654         93
  42.1512         91
  42.3370         66
  42.5227         78
  42.7085         70
  42.8942         75
  43.0800         83
  43.2657         90
  43.4515         96
  43.6372        108
  43.8230         79
  44.0088         90
  44.1945         74
  44.3803         64
  44.5660         64
  44.7518         74
  44.9375         78
  45.1233         69
  45.3091         55
  45.4948         78
  45.6806         66
  45.8663         65
  46.0521         58
  46.2378         71
  46.4236         42
  46.6093         69
  46.7951         76
  46.9809         58
  47.1666         66
  47.3524         78
  47.5381         66
  47.7239         57
  47.9096         61
  48.0954         63
  48.2811         77
  48.4669         65
  48.6527         72
  48.8384         70
  49.0242         77
  49.2099         76
  49.3957         65
  49.5814         60
  49.7672         49
  49.9530         68
  50.1387         60
  50.3245         61
  50.5102         59
  50.6960         79
  50.8817         59
  51.0675         62
  51.2532         47
  51.4390         60
  51.6248         73
  51.8105         68
  51.9963         60
  52.1820         54
  52.3678         61
  52.5535         63
  52.7393         58
  52.9250         63
  53.1108         58
  53.2966         43
  53.4823         66
  53.6681         56
  53.8538         72
  54.0396         51
  54.2253         67
  54.4111         65
  54.5969         60
  54.7826         57
  54.9684         56
  55.1541         60
  55.3399         53
  55.5256         50
  55.7114         71
  55.8971         64
  56.0829         56
  56.2687         53
  56.4544         63
  56.6402         62
  56.8259         54
  57.0117         63
  57.1974         55
  57.3832         43
  57.5689         52
  57.7547         59
  57.9405         68
  58.1262         60
  58.3120         36
  58.4977         43
  58.6835         37
  58.8692         70
  59.0550         64
  59.2408         54
  59.4265         66
  59.6123         54
  59.7980         41
  59.9838         42
  60.0024         70