File: notebooks/data/xrd_data/ML_20220718_34_SJD_4_LaB6-2min.uxd
; (content of file Y:\Sam\Apurva-07-20-2022\puck4\ML_20220718_34_SJD_0_LaB6-2min.raw)
_FILEVERSION = 3
_SAMPLE = ML_20220718_34_SJD_0_LaB6-2min
_+SAMPLE =
_SITE = USA
_USER = Administrator
_GONIOMETER_CODE = 20
; Goniometer : D8 theta/2theta, stage : Unknown
_ATTACHMENTS_CODE = 0
_GONIOMETER_RADIUS = 200.5
_FIXED_DIVSLIT = 0.6
_FIXED_SAMPLESLIT = 0
_SOLLER_SLITS = 2
_FIXED_DETSLIT = 9.55
_MONOCHROMATOR = 0
; Incident beam monochromator : None
_SOLLER_SLITS_2 = N
_THIN_FILM = N
_BETA_FILTER = Y
_FIXED_ANTISLIT = 5.89
_ANALYZER_CODE = 0
; Received beam analyzer : None
_DATEMEASURED = "26-Jul-2022 09:04:03"
_WL_UNIT = A
_WL1 = 1.5406
_WL2 = 1.54439
_WL3 = 1.39222
_WLRATIO = 0.5
_ANODE = Cu
_V4_INF_CREATOR = XRDWizard
_V4_INF_CREATOR_VERSION = V2.9.0.22
_V4_INF_WIZARD_VERSION = V2.9.0.22
_V4_INF_WIZARD_ADDINS = V2.9.0.22
_V4_INF_WIZARD_DOCTYPE = XRD
_V4_INF_OSUSER = McQueenLab
_V4_INF_USER = Administrator
_V4_INF_SITE = USA
_V4_INF_SAMPLEID = ML_20220718_34_SJD_0_LaB6-2min

; Data for range 1
_DRIVE = COUPLED
_STEPTIME = 5.64
_STEPSIZE = 0.0185756
_STEPMODE = C
_START = 5
_THETA = 2.5
_2THETA = 5
_KHI = 0
_PHI = 0
_X = 0
_Y = 0
_Z = 0
_DETECTOR = 5
; Detector type : Unknown
_DETECTORSLIT = unkn
_AUX1 = 0
_AUX2 = 0
_AUX3 = 0
_TIMESTARTED = 15
_TEMP_RATE = -1
_TEMP_DELAY = -1
_KV = 40
_MA = 40
_RANGE_WL = 1.5406
_3DPLANE = 0
_V4_ADDITIONALDETECTOR = 257
_V4_PSD2THETA = 3.4228
_V4_PSDCHANNEL1 = 0
_V4_PSDAPERTURE = 12.68
_V4_PSDTYPE = 5
_V4_PSDFIXED = 0
_V4_COUNTERS_MASK = 4096
_V4_DRIVES_MASK = 0
_V4_ENCODERS_MASK = 0
_2THETACOUNTS = 1
; 2THETA  PSD
   5.0000        124
   5.1858        128
   5.3715        101
   5.5573        108
   5.7430        111
   5.9288         96
   6.1145         90
   6.3003         78
   6.4860         92
   6.6718         88
   6.8576         97
   7.0433         94
   7.2291         81
   7.4148         92
   7.6006         94
   7.7863         90
   7.9721         86
   8.1579         94
   8.3436         73
   8.5294         88
   8.7151        108
   8.9009        102
   9.0866         94
   9.2724        120
   9.4581        119
   9.6439        111
   9.8297        101
  10.0154         98
  10.2012        116
  10.3869        117
  10.5727        138
  10.7584        120
  10.9442        119
  11.1299        124
  11.3157        110
  11.5015        129
  11.6872        103
  11.8730        107
  12.0587        125
  12.2445        115
  12.4302        105
  12.6160        110
  12.8018        119
  12.9875        101
  13.1733        109
  13.3590        111
  13.5448         95
  13.7305         95
  13.9163        103
  14.1020         93
  14.2878         84
  14.4736        103
  14.6593         82
  14.8451         94
  15.0308         69
  15.2166         97
  15.4023         80
  15.5881         84
  15.7738         80
  15.9596         71
  16.1454         94
  16.3311         77
  16.5169         77
  16.7026         86
  16.8884         69
  17.0741         89
  17.2599         88
  17.4457         63
  17.6314         88
  17.8172         69
  18.0029         87
  18.1887         57
  18.3744         94
  18.5602         80
  18.7459         88
  18.9317         79
  19.1175         93
  19.3032         69
  19.4890         83
  19.6747         84
  19.8605         74
  20.0462         81
  20.2320         91
  20.4177         98
  20.6035        103
  20.7893         74
  20.9750         97
  21.1608        100
  21.3465        258
  21.5323        112
  21.7180         91
  21.9038         92
  22.0896         91
  22.2753        109
  22.4611         85
  22.6468        109
  22.8326        104
  23.0183         84
  23.2041         75
  23.3898         87
  23.5756        117
  23.7614        117
  23.9471         85
  24.1329        111
  24.3186        108
  24.5044         95
  24.6901         98
  24.8759         95
  25.0616         97
  25.2474         85
  25.4332         87
  25.6189        101
  25.8047         92
  25.9904         99
  26.1762         95
  26.3619        106
  26.5477         98
  26.7335        103
  26.9192         89
  27.1050         84
  27.2907        107
  27.4765         94
  27.6622        106
  27.8480         98
  28.0337         68
  28.2195         71
  28.4053         82
  28.5910         96
  28.7768         89
  28.9625         76
  29.1483         86
  29.3340         74
  29.5198         83
  29.7055         56
  29.8913         79
  30.0771         72
  30.2628         81
  30.4486        136
  30.6343         70
  30.8201         74
  31.0058         83
  31.1916         68
  31.3774         64
  31.5631         60
  31.7489         68
  31.9346         63
  32.1204         68
  32.3061         75
  32.4919         82
  32.6776         84
  32.8634         63
  33.0492         66
  33.2349         64
  33.4207         54
  33.6064         58
  33.7922         47
  33.9779         53
  34.1637         51
  34.3494         50
  34.5352         66
  34.7210         68
  34.9067         75
  35.0925         49
  35.2782         50
  35.4640         46
  35.6497         40
  35.8355         56
  36.0213         49
  36.2070         44
  36.3928         50
  36.5785         60
  36.7643         56
  36.9500         47
  37.1358         54
  37.3215         41
  37.5073         56
  37.6931         50
  37.8788         42
  38.0646         40
  38.2503         41
  38.4361         50
  38.6218         37
  38.8076         34
  38.9933         36
  39.1791         52
  39.3649         37
  39.5506         29
  39.7364         33
  39.9221         38
  40.1079         45
  40.2936         35
  40.4794         38
  40.6652         40
  40.8509         36
  41.0367         46
  41.2224         50
  41.4082         44
  41.5939         27
  41.7797         38
  41.9654         29
  42.1512         39
  42.3370         32
  42.5227         48
  42.7085         37
  42.8942         49
  43.0800         38
  43.2657         47
  43.4515         37
  43.6372         37
  43.8230         23
  44.0088         30
  44.1945         45
  44.3803         36
  44.5660         30
  44.7518         32
  44.9375         27
  45.1233         34
  45.3091         28
  45.4948         27
  45.6806         30
  45.8663         32
  46.0521         24
  46.2378         34
  46.4236         33
  46.6093         30
  46.7951         25
  46.9809         40
  47.1666         34
  47.3524         36
  47.5381         36
  47.7239         33
  47.9096         40
  48.0954         35
  48.2811         31
  48.4669         32
  48.6527         32
  48.8384         27
  49.0242         41
  49.2099         27
  49.3957         21
  49.5814         25
  49.7672         24
  49.9530         27
  50.1387         29
  50.3245         37
  50.5102         31
  50.6960         24
  50.8817         30
  51.0675         38
  51.2532         33
  51.4390         26
  51.6248         36
  51.8105         19
  51.9963         24
  52.1820         29
  52.3678         24
  52.5535         37
  52.7393         37
  52.9250         21
  53.1108         33
  53.2966         28
  53.4823         29
  53.6681         24
  53.8538         33
  54.0396         39
  54.2253         32
  54.4111         21
  54.5969         26
  54.7826         24
  54.9684         28
  55.1541         17
  55.3399         34
  55.5256         14
  55.7114         24
  55.8971         25
  56.0829         33
  56.2687         33
  56.4544         24
  56.6402         29
  56.8259         30
  57.0117         31
  57.1974         36
  57.3832         32
  57.5689         27
  57.7547         38
  57.9405         28
  58.1262         31
  58.3120         31
  58.4977         19
  58.6835         28
  58.8692         36
  59.0550         28
  59.2408         21
  59.4265         29
  59.6123         19
  59.7980         41
  59.9838         37
  60.0024         34