File: notebooks/data/xrd_data/ML_20220720_1_SJD_4_LaB6-2min.uxd
; (content of file Y:\Sam\Apurva-07-20-2022\puck4\ML_20220718_1_SJD_0_LaB6-2min.raw)
_FILEVERSION = 3
_SAMPLE = ML_20220718_1_SJD_0_LaB6-2mi
_+SAMPLE =
_SITE = USA
_USER = Administrator
_GONIOMETER_CODE = 20
; Goniometer : D8 theta/2theta, stage : Unknown
_ATTACHMENTS_CODE = 0
_GONIOMETER_RADIUS = 200.5
_FIXED_DIVSLIT = 0.6
_FIXED_SAMPLESLIT = 0
_SOLLER_SLITS = 2
_FIXED_DETSLIT = 9.55
_MONOCHROMATOR = 0
; Incident beam monochromator : None
_SOLLER_SLITS_2 = N
_THIN_FILM = N
_BETA_FILTER = Y
_FIXED_ANTISLIT = 5.89
_ANALYZER_CODE = 0
; Received beam analyzer : None
_DATEMEASURED = "21-Jul-2022 02:49:06"
_WL_UNIT = A
_WL1 = 1.5406
_WL2 = 1.54439
_WL3 = 1.39222
_WLRATIO = 0.5
_ANODE = Cu
_V4_INF_CREATOR = XRDWizard
_V4_INF_CREATOR_VERSION = V2.9.0.22
_V4_INF_WIZARD_VERSION = V2.9.0.22
_V4_INF_WIZARD_ADDINS = V2.9.0.22
_V4_INF_WIZARD_DOCTYPE = XRD
_V4_INF_OSUSER = McQueenLab
_V4_INF_USER = Administrator
_V4_INF_SITE = USA
_V4_INF_SAMPLEID = ML_20220718_1_SJD_0_LaB6-2mi

; Data for range 1
_DRIVE = COUPLED
_STEPTIME = 5.64
_STEPSIZE = 0.0185756
_STEPMODE = C
_START = 5
_THETA = 2.5
_2THETA = 5
_KHI = 0
_PHI = 0
_X = 0
_Y = 0
_Z = 0
_DETECTOR = 5
; Detector type : Unknown
_DETECTORSLIT = unkn
_AUX1 = 0
_AUX2 = 0
_AUX3 = 0
_TIMESTARTED = 15
_TEMP_RATE = -1
_TEMP_DELAY = -1
_KV = 40
_MA = 40
_RANGE_WL = 1.5406
_3DPLANE = 0
_V4_ADDITIONALDETECTOR = 257
_V4_PSD2THETA = 3.3708
_V4_PSDCHANNEL1 = 0
_V4_PSDAPERTURE = 12.68
_V4_PSDTYPE = 5
_V4_PSDFIXED = 0
_V4_COUNTERS_MASK = 4096
_V4_DRIVES_MASK = 0
_V4_ENCODERS_MASK = 0
_2THETACOUNTS = 1
; 2THETA  PSD
   5.0000        159
   5.1858        121
   5.3715        112
   5.5573        103
   5.7430        113
   5.9288        105
   6.1145         94
   6.3003        100
   6.4860         85
   6.6718         81
   6.8576         73
   7.0433         75
   7.2291         65
   7.4148         72
   7.6006         87
   7.7863         80
   7.9721        108
   8.1579         80
   8.3436         92
   8.5294         91
   8.7151         84
   8.9009         97
   9.0866         79
   9.2724         98
   9.4581         94
   9.6439         95
   9.8297        119
  10.0154        113
  10.2012        138
  10.3869        100
  10.5727         97
  10.7584        104
  10.9442        127
  11.1299        106
  11.3157        112
  11.5015        114
  11.6872        101
  11.8730        107
  12.0587        124
  12.2445         95
  12.4302        108
  12.6160        101
  12.8018        106
  12.9875         77
  13.1733         83
  13.3590         98
  13.5448        101
  13.7305         86
  13.9163         83
  14.1020         77
  14.2878         88
  14.4736         85
  14.6593         75
  14.8451         75
  15.0308         95
  15.2166         72
  15.4023         59
  15.5881         64
  15.7738         92
  15.9596         84
  16.1454         73
  16.3311         92
  16.5169         64
  16.7026         77
  16.8884         64
  17.0741         78
  17.2599         74
  17.4457         83
  17.6314         73
  17.8172         82
  18.0029         77
  18.1887         82
  18.3744         88
  18.5602         85
  18.7459         72
  18.9317        105
  19.1175         83
  19.3032         78
  19.4890         74
  19.6747         81
  19.8605        101
  20.0462         75
  20.2320         82
  20.4177         81
  20.6035         96
  20.7893         97
  20.9750         96
  21.1608        125
  21.3465        262
  21.5323         99
  21.7180         99
  21.9038         98
  22.0896         94
  22.2753         94
  22.4611        102
  22.6468         95
  22.8326         93
  23.0183         87
  23.2041        106
  23.3898         84
  23.5756         95
  23.7614         92
  23.9471        102
  24.1329        111
  24.3186        101
  24.5044         94
  24.6901         97
  24.8759        104
  25.0616        105
  25.2474         89
  25.4332         91
  25.6189         94
  25.8047         92
  25.9904         78
  26.1762         92
  26.3619         84
  26.5477         79
  26.7335         87
  26.9192         87
  27.1050        105
  27.2907         95
  27.4765         87
  27.6622         88
  27.8480         72
  28.0337         93
  28.2195         77
  28.4053         69
  28.5910         89
  28.7768         89
  28.9625         85
  29.1483         96
  29.3340         64
  29.5198         58
  29.7055         77
  29.8913         72
  30.0771         76
  30.2628         88
  30.4486        139
  30.6343         87
  30.8201         72
  31.0058         64
  31.1916         69
  31.3774         55
  31.5631         66
  31.7489         58
  31.9346         76
  32.1204         69
  32.3061         83
  32.4919         61
  32.6776         59
  32.8634         63
  33.0492         63
  33.2349         70
  33.4207         59
  33.6064         49
  33.7922         56
  33.9779         68
  34.1637         64
  34.3494         58
  34.5352         60
  34.7210         77
  34.9067         55
  35.0925         61
  35.2782         47
  35.4640         52
  35.6497         53
  35.8355         44
  36.0213         41
  36.2070         44
  36.3928         37
  36.5785         47
  36.7643         51
  36.9500         38
  37.1358         56
  37.3215         48
  37.5073         59
  37.6931         48
  37.8788         39
  38.0646         46
  38.2503         46
  38.4361         40
  38.6218         35
  38.8076         47
  38.9933         48
  39.1791         32
  39.3649         41
  39.5506         31
  39.7364         37
  39.9221         45
  40.1079         47
  40.2936         43
  40.4794         34
  40.6652         52
  40.8509         40
  41.0367         31
  41.2224         38
  41.4082         48
  41.5939         30
  41.7797         33
  41.9654         25
  42.1512         34
  42.3370         36
  42.5227         36
  42.7085         26
  42.8942         29
  43.0800         31
  43.2657         38
  43.4515         52
  43.6372         48
  43.8230         38
  44.0088         34
  44.1945         35
  44.3803         42
  44.5660         30
  44.7518         44
  44.9375         43
  45.1233         35
  45.3091         32
  45.4948         38
  45.6806         45
  45.8663         42
  46.0521         25
  46.2378         28
  46.4236         41
  46.6093         33
  46.7951         25
  46.9809         27
  47.1666         28
  47.3524         38
  47.5381         33
  47.7239         34
  47.9096         36
  48.0954         32
  48.2811         49
  48.4669         40
  48.6527         30
  48.8384         48
  49.0242         43
  49.2099         30
  49.3957         34
  49.5814         25
  49.7672         39
  49.9530         14
  50.1387         31
  50.3245         35
  50.5102         25
  50.6960         27
  50.8817         24
  51.0675         20
  51.2532         29
  51.4390         28
  51.6248         37
  51.8105         36
  51.9963         27
  52.1820         32
  52.3678         31
  52.5535         26
  52.7393         33
  52.9250         34
  53.1108         18
  53.2966         39
  53.4823         23
  53.6681         27
  53.8538         27
  54.0396         40
  54.2253         32
  54.4111         34
  54.5969         19
  54.7826         24
  54.9684         23
  55.1541         24
  55.3399         33
  55.5256         22
  55.7114         30
  55.8971         23
  56.0829         21
  56.2687         41
  56.4544         27
  56.6402         22
  56.8259         30
  57.0117         22
  57.1974         19
  57.3832         30
  57.5689         32
  57.7547         21
  57.9405         32
  58.1262         38
  58.3120         27
  58.4977         33
  58.6835         33
  58.8692         26
  59.0550         31
  59.2408         17
  59.4265         27
  59.6123         26
  59.7980         24
  59.9838         26
  60.0024         26