File: notebooks/data/xrd_data/ML_20220718_11_SJD_4_LaB6-2min.csv
;,2THETA,
5.0000,112
5.1858,117
5.3715,117
5.5573,120
5.7430,103
5.9288,83
6.1145,104
6.3003,94
6.4860,94
6.6718,94
6.8576,82
7.0433,78
7.2291,67
7.4148,81
7.6006,87
7.7863,92
7.9721,108
8.1579,93
8.3436,113
8.5294,101
8.7151,118
8.9009,112
9.0866,99
9.2724,119
9.4581,110
9.6439,107
9.8297,115
10.0154,124
10.2012,134
10.3869,113
10.5727,113
10.7584,106
10.9442,121
11.1299,110
11.3157,116
11.5015,120
11.6872,107
11.8730,114
12.0587,114
12.2445,104
12.4302,98
12.6160,114
12.8018,105
12.9875,102
13.1733,103
13.3590,88
13.5448,78
13.7305,87
13.9163,102
14.1020,88
14.2878,83
14.4736,96
14.6593,78
14.8451,82
15.0308,87
15.2166,82
15.4023,100
15.5881,89
15.7738,89
15.9596,82
16.1454,70
16.3311,91
16.5169,100
16.7026,81
16.8884,93
17.0741,80
17.2599,88
17.4457,82
17.6314,83
17.8172,91
18.0029,87
18.1887,76
18.3744,79
18.5602,83
18.7459,104
18.9317,77
19.1175,85
19.3032,89
19.4890,73
19.6747,76
19.8605,89
20.0462,96
20.2320,104
20.4177,69
20.6035,88
20.7893,100
20.9750,88
21.1608,109
21.3465,229
21.5323,107
21.7180,87
21.9038,99
22.0896,95
22.2753,94
22.4611,89
22.6468,88
22.8326,96
23.0183,92
23.2041,96
23.3898,94
23.5756,111
23.7614,110
23.9471,84
24.1329,106
24.3186,104
24.5044,96
24.6901,96
24.8759,94
25.0616,85
25.2474,96
25.4332,96
25.6189,89
25.8047,97
25.9904,107
26.1762,94
26.3619,99
26.5477,83
26.7335,90
26.9192,94
27.1050,89
27.2907,91
27.4765,93
27.6622,85
27.8480,100
28.0337,90
28.2195,98
28.4053,70
28.5910,99
28.7768,85
28.9625,88
29.1483,79
29.3340,78
29.5198,73
29.7055,86
29.8913,72
30.0771,84
30.2628,79
30.4486,131
30.6343,70
30.8201,76
31.0058,71
31.1916,85
31.3774,62
31.5631,53
31.7489,71
31.9346,71
32.1204,71
32.3061,73
32.4919,76
32.6776,68
32.8634,53
33.0492,66
33.2349,64
33.4207,73
33.6064,61
33.7922,62
33.9779,56
34.1637,70
34.3494,46
34.5352,60
34.7210,65
34.9067,41
35.0925,49
35.2782,48
35.4640,58
35.6497,44
35.8355,50
36.0213,58
36.2070,48
36.3928,49
36.5785,40
36.7643,46
36.9500,47
37.1358,40
37.3215,51
37.5073,54
37.6931,46
37.8788,39
38.0646,38
38.2503,39
38.4361,30
38.6218,47
38.8076,39
38.9933,50
39.1791,42
39.3649,40
39.5506,43
39.7364,46
39.9221,41
40.1079,30
40.2936,40
40.4794,38
40.6652,48
40.8509,31
41.0367,35
41.2224,33
41.4082,34
41.5939,35
41.7797,40
41.9654,34
42.1512,41
42.3370,34
42.5227,41
42.7085,35
42.8942,38
43.0800,42
43.2657,41
43.4515,31
43.6372,50
43.8230,32
44.0088,37
44.1945,45
44.3803,37
44.5660,40
44.7518,43
44.9375,35
45.1233,47
45.3091,36
45.4948,36
45.6806,31
45.8663,31
46.0521,35
46.2378,25
46.4236,33
46.6093,36
46.7951,36
46.9809,34
47.1666,34
47.3524,40
47.5381,34
47.7239,29
47.9096,36
48.0954,29
48.2811,34
48.4669,37
48.6527,33
48.8384,26
49.0242,39
49.2099,25
49.3957,31
49.5814,33
49.7672,31
49.9530,27
50.1387,27
50.3245,25
50.5102,39
50.6960,25
50.8817,28
51.0675,30
51.2532,35
51.4390,38
51.6248,33
51.8105,32
51.9963,21
52.1820,30
52.3678,35
52.5535,39
52.7393,28
52.9250,22
53.1108,26
53.2966,23
53.4823,20
53.6681,32
53.8538,24
54.0396,35
54.2253,23
54.4111,23
54.5969,29
54.7826,21
54.9684,23
55.1541,23
55.3399,26
55.5256,33
55.7114,30
55.8971,19
56.0829,39
56.2687,38
56.4544,31
56.6402,38
56.8259,26
57.0117,26
57.1974,32
57.3832,28
57.5689,22
57.7547,27
57.9405,26
58.1262,25
58.3120,25
58.4977,24
58.6835,32
58.8692,24
59.0550,34
59.2408,23
59.4265,29
59.6123,23
59.7980,37
59.9838,28
60.0024,31