File: notebooks/data/xrd_data/ML_20220721_11_SJD_4_LaB6-4min.uxd
; (content of file Y:\Sam\Apurva-07-20-2022\puck1\ML_20220721_11_SJD_0_LaB6-4min.raw)
_FILEVERSION = 3
_SAMPLE = ML_20220721_11_SJD_0_LaB6-4min
_+SAMPLE =
_SITE = USA
_USER = Administrator
_GONIOMETER_CODE = 20
; Goniometer : D8 theta/2theta, stage : Unknown
_ATTACHMENTS_CODE = 0
_GONIOMETER_RADIUS = 200.5
_FIXED_DIVSLIT = 0.6
_FIXED_SAMPLESLIT = 0
_SOLLER_SLITS = 2
_FIXED_DETSLIT = 9.55
_MONOCHROMATOR = 0
; Incident beam monochromator : None
_SOLLER_SLITS_2 = N
_THIN_FILM = N
_BETA_FILTER = Y
_FIXED_ANTISLIT = 5.89
_ANALYZER_CODE = 0
; Received beam analyzer : None
_DATEMEASURED = "25-Jul-2022 14:41:55"
_WL_UNIT = A
_WL1 = 1.5406
_WL2 = 1.54439
_WL3 = 1.39222
_WLRATIO = 0.5
_ANODE = Cu
_V4_INF_CREATOR = XRDWizard
_V4_INF_CREATOR_VERSION = V2.9.0.22
_V4_INF_WIZARD_VERSION = V2.9.0.22
_V4_INF_WIZARD_ADDINS = V2.9.0.22
_V4_INF_WIZARD_DOCTYPE = XRD
_V4_INF_OSUSER = McQueenLab
_V4_INF_USER = Administrator
_V4_INF_SITE = USA
_V4_INF_SAMPLEID = ML_20220721_11_SJD_0_LaB6-4min

; Data for range 1
_DRIVE = COUPLED
_STEPTIME = 11.28
_STEPSIZE = 0.0185756
_STEPMODE = C
_START = 5
_THETA = 2.5
_2THETA = 5
_KHI = 0
_PHI = 0
_X = 0
_Y = 0
_Z = 0
_DETECTOR = 5
; Detector type : Unknown
_DETECTORSLIT = unkn
_AUX1 = 0
_AUX2 = 0
_AUX3 = 0
_TIMESTARTED = 16
_TEMP_RATE = -1
_TEMP_DELAY = -1
_KV = 40
_MA = 40
_RANGE_WL = 1.5406
_3DPLANE = 0
_V4_ADDITIONALDETECTOR = 257
_V4_PSD2THETA = 3.3924
_V4_PSDCHANNEL1 = 0
_V4_PSDAPERTURE = 12.68
_V4_PSDTYPE = 5
_V4_PSDFIXED = 0
_V4_COUNTERS_MASK = 4096
_V4_DRIVES_MASK = 0
_V4_ENCODERS_MASK = 0
_2THETACOUNTS = 1
; 2THETA  PSD
   5.0000        288
   5.1858        220
   5.3715        222
   5.5573        214
   5.7430        209
   5.9288        183
   6.1145        196
   6.3003        154
   6.4860        167
   6.6718        191
   6.8576        154
   7.0433        156
   7.2291        164
   7.4148        158
   7.6006        176
   7.7863        170
   7.9721        178
   8.1579        192
   8.3436        217
   8.5294        229
   8.7151        227
   8.9009        210
   9.0866        183
   9.2724        214
   9.4581        221
   9.6439        236
   9.8297        229
  10.0154        265
  10.2012        221
  10.3869        254
  10.5727        255
  10.7584        265
  10.9442        274
  11.1299        235
  11.3157        212
  11.5015        228
  11.6872        255
  11.8730        237
  12.0587        255
  12.2445        232
  12.4302        203
  12.6160        230
  12.8018        205
  12.9875        217
  13.1733        224
  13.3590        210
  13.5448        186
  13.7305        189
  13.9163        194
  14.1020        182
  14.2878        172
  14.4736        150
  14.6593        167
  14.8451        162
  15.0308        157
  15.2166        171
  15.4023        154
  15.5881        170
  15.7738        172
  15.9596        187
  16.1454        147
  16.3311        161
  16.5169        162
  16.7026        167
  16.8884        171
  17.0741        149
  17.2599        185
  17.4457        163
  17.6314        188
  17.8172        141
  18.0029        157
  18.1887        149
  18.3744        165
  18.5602        178
  18.7459        170
  18.9317        153
  19.1175        168
  19.3032        181
  19.4890        178
  19.6747        181
  19.8605        170
  20.0462        205
  20.2320        187
  20.4177        182
  20.6035        179
  20.7893        196
  20.9750        186
  21.1608        227
  21.3465        354
  21.5323        201
  21.7180        204
  21.9038        222
  22.0896        182
  22.2753        190
  22.4611        207
  22.6468        204
  22.8326        205
  23.0183        195
  23.2041        210
  23.3898        202
  23.5756        227
  23.7614        196
  23.9471        184
  24.1329        219
  24.3186        213
  24.5044        208
  24.6901        195
  24.8759        219
  25.0616        193
  25.2474        196
  25.4332        181
  25.6189        205
  25.8047        210
  25.9904        185
  26.1762        208
  26.3619        214
  26.5477        198
  26.7335        187
  26.9192        217
  27.1050        194
  27.2907        248
  27.4765        196
  27.6622        176
  27.8480        166
  28.0337        170
  28.2195        169
  28.4053        156
  28.5910        185
  28.7768        168
  28.9625        139
  29.1483        170
  29.3340        181
  29.5198        177
  29.7055        143
  29.8913        167
  30.0771        169
  30.2628        168
  30.4486        291
  30.6343        151
  30.8201        167
  31.0058        168
  31.1916        150
  31.3774        164
  31.5631        110
  31.7489        136
  31.9346        140
  32.1204        122
  32.3061        115
  32.4919        141
  32.6776        118
  32.8634        137
  33.0492        119
  33.2349        116
  33.4207        106
  33.6064        105
  33.7922        113
  33.9779        126
  34.1637        104
  34.3494        119
  34.5352        119
  34.7210        113
  34.9067        136
  35.0925        119
  35.2782        107
  35.4640        116
  35.6497        127
  35.8355        101
  36.0213        105
  36.2070         88
  36.3928         96
  36.5785        108
  36.7643         90
  36.9500         93
  37.1358         90
  37.3215         88
  37.5073        149
  37.6931         93
  37.8788         92
  38.0646         76
  38.2503         89
  38.4361         70
  38.6218         89
  38.8076         78
  38.9933        104
  39.1791         83
  39.3649         85
  39.5506         75
  39.7364         90
  39.9221         71
  40.1079         91
  40.2936         77
  40.4794         95
  40.6652         70
  40.8509         73
  41.0367         94
  41.2224         70
  41.4082         73
  41.5939         81
  41.7797         80
  41.9654         79
  42.1512         77
  42.3370         58
  42.5227         65
  42.7085         75
  42.8942         68
  43.0800         85
  43.2657         91
  43.4515         69
  43.6372        104
  43.8230         76
  44.0088         58
  44.1945         66
  44.3803         76
  44.5660         66
  44.7518         80
  44.9375         82
  45.1233         76
  45.3091         71
  45.4948         69
  45.6806         59
  45.8663         62
  46.0521         85
  46.2378         60
  46.4236         66
  46.6093         81
  46.7951         68
  46.9809         74
  47.1666         63
  47.3524         67
  47.5381         58
  47.7239         63
  47.9096         59
  48.0954         62
  48.2811         71
  48.4669         54
  48.6527         56
  48.8384         64
  49.0242        102
  49.2099         75
  49.3957         56
  49.5814         56
  49.7672         59
  49.9530         68
  50.1387         50
  50.3245         81
  50.5102         60
  50.6960         54
  50.8817         56
  51.0675         57
  51.2532         79
  51.4390         88
  51.6248         75
  51.8105         70
  51.9963         61
  52.1820         56
  52.3678         57
  52.5535         50
  52.7393         69
  52.9250         63
  53.1108         62
  53.2966         53
  53.4823         61
  53.6681         63
  53.8538         74
  54.0396         70
  54.2253         39
  54.4111         60
  54.5969         41
  54.7826         58
  54.9684         59
  55.1541         59
  55.3399         49
  55.5256         62
  55.7114         46
  55.8971         57
  56.0829         67
  56.2687         67
  56.4544         67
  56.6402         49
  56.8259         59
  57.0117         50
  57.1974         53
  57.3832         48
  57.5689         64
  57.7547         53
  57.9405         68
  58.1262         58
  58.3120         48
  58.4977         49
  58.6835         57
  58.8692         56
  59.0550         60
  59.2408         53
  59.4265         50
  59.6123         61
  59.7980         51
  59.9838         56
  60.0024         58