File: notebooks/data/xrd_data/ML_20220720_16_SJD_4_LaB6-1min.uxd
; (content of file Y:\Sam\Apurva-07-20-2022\puck2\ML_20220720_16_SJD_0_LaB6-1min.raw)
_FILEVERSION = 3
_SAMPLE = ML_20220720_16_SJD_0_LaB6-1mi
_+SAMPLE =
_SITE = USA
_USER = Administrator
_GONIOMETER_CODE = 20
; Goniometer : D8 theta/2theta, stage : Unknown
_ATTACHMENTS_CODE = 0
_GONIOMETER_RADIUS = 200.5
_FIXED_DIVSLIT = 0.6
_FIXED_SAMPLESLIT = 0
_SOLLER_SLITS = 2
_FIXED_DETSLIT = 9.55
_MONOCHROMATOR = 0
; Incident beam monochromator : None
_SOLLER_SLITS_2 = N
_THIN_FILM = N
_BETA_FILTER = Y
_FIXED_ANTISLIT = 5.89
_ANALYZER_CODE = 0
; Received beam analyzer : None
_DATEMEASURED = "25-Jul-2022 18:16:10"
_WL_UNIT = A
_WL1 = 1.5406
_WL2 = 1.54439
_WL3 = 1.39222
_WLRATIO = 0.5
_ANODE = Cu
_V4_INF_CREATOR = XRDWizard
_V4_INF_CREATOR_VERSION = V2.9.0.22
_V4_INF_WIZARD_VERSION = V2.9.0.22
_V4_INF_WIZARD_ADDINS = V2.9.0.22
_V4_INF_WIZARD_DOCTYPE = XRD
_V4_INF_OSUSER = McQueenLab
_V4_INF_USER = Administrator
_V4_INF_SITE = USA
_V4_INF_SAMPLEID = ML_20220720_16_SJD_0_LaB6-1mi

; Data for range 1
_DRIVE = COUPLED
_STEPTIME = 4.23
_STEPSIZE = 0.0185756
_STEPMODE = C
_START = 5
_THETA = 2.5
_2THETA = 5
_KHI = 0
_PHI = 0
_X = 0
_Y = 0
_Z = 0
_DETECTOR = 5
; Detector type : Unknown
_DETECTORSLIT = unkn
_AUX1 = 0
_AUX2 = 0
_AUX3 = 0
_TIMESTARTED = 15
_TEMP_RATE = -1
_TEMP_DELAY = -1
_KV = 40
_MA = 40
_RANGE_WL = 1.5406
_3DPLANE = 0
_V4_ADDITIONALDETECTOR = 257
_V4_PSD2THETA = 3.3706
_V4_PSDCHANNEL1 = 0
_V4_PSDAPERTURE = 12.68
_V4_PSDTYPE = 5
_V4_PSDFIXED = 0
_V4_COUNTERS_MASK = 4096
_V4_DRIVES_MASK = 0
_V4_ENCODERS_MASK = 0
_2THETACOUNTS = 1
; 2THETA  PSD
   5.0000         90
   5.1858        106
   5.3715         84
   5.5573         85
   5.7430         82
   5.9288         73
   6.1145         61
   6.3003         59
   6.4860         67
   6.6718         48
   6.8576         62
   7.0433         49
   7.2291         61
   7.4148         63
   7.6006         62
   7.7863         72
   7.9721         64
   8.1579         77
   8.3436         69
   8.5294         76
   8.7151         83
   8.9009         67
   9.0866         96
   9.2724         93
   9.4581         64
   9.6439         81
   9.8297        105
  10.0154         92
  10.2012        106
  10.3869         83
  10.5727        113
  10.7584        105
  10.9442         73
  11.1299         88
  11.3157         78
  11.5015         71
  11.6872         71
  11.8730         86
  12.0587         75
  12.2445         77
  12.4302         74
  12.6160         80
  12.8018         77
  12.9875         60
  13.1733         57
  13.3590         79
  13.5448         79
  13.7305         63
  13.9163         66
  14.1020         72
  14.2878         69
  14.4736         60
  14.6593         74
  14.8451         67
  15.0308         55
  15.2166         49
  15.4023         56
  15.5881         51
  15.7738         56
  15.9596         50
  16.1454         56
  16.3311         62
  16.5169         53
  16.7026         57
  16.8884         51
  17.0741         57
  17.2599         69
  17.4457         65
  17.6314         53
  17.8172         54
  18.0029         63
  18.1887         64
  18.3744         49
  18.5602         72
  18.7459         46
  18.9317         47
  19.1175         65
  19.3032         56
  19.4890         55
  19.6747         68
  19.8605         61
  20.0462         64
  20.2320         58
  20.4177         68
  20.6035         67
  20.7893         65
  20.9750         77
  21.1608         81
  21.3465        196
  21.5323         74
  21.7180         75
  21.9038         52
  22.0896         68
  22.2753         87
  22.4611         70
  22.6468         68
  22.8326         83
  23.0183         76
  23.2041         68
  23.3898         93
  23.5756         89
  23.7614         75
  23.9471         65
  24.1329         73
  24.3186         80
  24.5044         82
  24.6901         67
  24.8759         56
  25.0616         77
  25.2474         76
  25.4332         78
  25.6189         79
  25.8047         80
  25.9904         86
  26.1762         78
  26.3619         81
  26.5477         71
  26.7335         84
  26.9192         67
  27.1050         56
  27.2907         72
  27.4765         73
  27.6622         64
  27.8480         77
  28.0337         75
  28.2195         51
  28.4053         60
  28.5910         64
  28.7768         49
  28.9625         61
  29.1483         51
  29.3340         44
  29.5198         55
  29.7055         53
  29.8913         45
  30.0771         63
  30.2628         64
  30.4486         89
  30.6343         61
  30.8201         50
  31.0058         56
  31.1916         51
  31.3774         50
  31.5631         57
  31.7489         42
  31.9346         46
  32.1204         43
  32.3061         46
  32.4919         47
  32.6776         57
  32.8634         41
  33.0492         50
  33.2349         50
  33.4207         34
  33.6064         37
  33.7922         55
  33.9779         31
  34.1637         33
  34.3494         47
  34.5352         46
  34.7210         53
  34.9067         39
  35.0925         42
  35.2782         38
  35.4640         42
  35.6497         42
  35.8355         44
  36.0213         42
  36.2070         37
  36.3928         45
  36.5785         35
  36.7643         31
  36.9500         28
  37.1358         40
  37.3215         31
  37.5073         42
  37.6931         34
  37.8788         33
  38.0646         39
  38.2503         30
  38.4361         32
  38.6218         45
  38.8076         31
  38.9933         29
  39.1791         35
  39.3649         32
  39.5506         29
  39.7364         22
  39.9221         32
  40.1079         35
  40.2936         35
  40.4794         34
  40.6652         24
  40.8509         36
  41.0367         39
  41.2224         32
  41.4082         26
  41.5939         26
  41.7797         25
  41.9654         22
  42.1512         20
  42.3370         30
  42.5227         29
  42.7085         30
  42.8942         35
  43.0800         31
  43.2657         35
  43.4515         26
  43.6372         41
  43.8230         33
  44.0088         23
  44.1945         28
  44.3803         34
  44.5660         20
  44.7518         34
  44.9375         27
  45.1233         24
  45.3091         26
  45.4948         21
  45.6806         25
  45.8663         25
  46.0521         20
  46.2378         22
  46.4236         29
  46.6093         34
  46.7951         17
  46.9809         21
  47.1666         18
  47.3524         36
  47.5381         21
  47.7239         19
  47.9096         38
  48.0954         25
  48.2811         15
  48.4669         28
  48.6527         25
  48.8384         30
  49.0242         28
  49.2099         22
  49.3957         21
  49.5814         21
  49.7672         26
  49.9530         19
  50.1387         26
  50.3245         17
  50.5102         20
  50.6960         25
  50.8817         26
  51.0675         23
  51.2532         18
  51.4390         35
  51.6248         29
  51.8105         19
  51.9963         20
  52.1820         15
  52.3678         23
  52.5535         12
  52.7393         30
  52.9250         29
  53.1108         31
  53.2966         29
  53.4823         18
  53.6681         16
  53.8538         20
  54.0396         28
  54.2253         29
  54.4111         20
  54.5969         24
  54.7826         22
  54.9684         24
  55.1541         23
  55.3399         25
  55.5256         14
  55.7114         18
  55.8971         22
  56.0829         27
  56.2687         28
  56.4544         15
  56.6402         20
  56.8259         20
  57.0117         18
  57.1974         13
  57.3832         21
  57.5689         21
  57.7547         23
  57.9405         21
  58.1262         13
  58.3120         18
  58.4977         13
  58.6835         16
  58.8692         22
  59.0550         20
  59.2408         20
  59.4265         17
  59.6123         24
  59.7980         19
  59.9838         19
  60.0024         20