File: notebooks/data/xrd_data/ML_20220718_58_SJD_4_LaB6-4min.uxd
; (content of file Y:\Sam\Apurva-07-20-2022\puck4\ML_20220718_58_SJD_4_LaB6-4min.raw)
_FILEVERSION = 3
_SAMPLE = ML_20220718_58_SJD_4_LaB6-4min
_+SAMPLE =
_SITE = USA
_USER = Administrator
_GONIOMETER_CODE = 20
; Goniometer : D8 theta/2theta, stage : Unknown
_ATTACHMENTS_CODE = 0
_GONIOMETER_RADIUS = 200.5
_FIXED_DIVSLIT = 0.6
_FIXED_SAMPLESLIT = 0
_SOLLER_SLITS = 2
_FIXED_DETSLIT = 9.55
_MONOCHROMATOR = 0
; Incident beam monochromator : None
_SOLLER_SLITS_2 = N
_THIN_FILM = N
_BETA_FILTER = Y
_FIXED_ANTISLIT = 5.89
_ANALYZER_CODE = 0
; Received beam analyzer : None
_DATEMEASURED = "26-Jul-2022 14:40:55"
_WL_UNIT = A
_WL1 = 1.5406
_WL2 = 1.54439
_WL3 = 1.39222
_WLRATIO = 0.5
_ANODE = Cu
_V4_INF_CREATOR = XRDWizard
_V4_INF_CREATOR_VERSION = V2.9.0.22
_V4_INF_WIZARD_VERSION = V2.9.0.22
_V4_INF_WIZARD_ADDINS = V2.9.0.22
_V4_INF_WIZARD_DOCTYPE = XRD
_V4_INF_OSUSER = McQueenLab
_V4_INF_USER = Administrator
_V4_INF_SITE = USA
_V4_INF_SAMPLEID = ML_20220718_58_SJD_4_LaB6-4min

; Data for range 1
_DRIVE = COUPLED
_STEPTIME = 11.28
_STEPSIZE = 0.0185756
_STEPMODE = C
_START = 5
_THETA = 2.5
_2THETA = 5
_KHI = 0
_PHI = 0
_X = 0
_Y = 0
_Z = 0
_DETECTOR = 5
; Detector type : Unknown
_DETECTORSLIT = unkn
_AUX1 = 0
_AUX2 = 0
_AUX3 = 0
_TIMESTARTED = 15
_TEMP_RATE = -1
_TEMP_DELAY = -1
_KV = 40
_MA = 40
_RANGE_WL = 1.5406
_3DPLANE = 0
_V4_ADDITIONALDETECTOR = 257
_V4_PSD2THETA = 3.3891
_V4_PSDCHANNEL1 = 0
_V4_PSDAPERTURE = 12.68
_V4_PSDTYPE = 5
_V4_PSDFIXED = 0
_V4_COUNTERS_MASK = 4096
_V4_DRIVES_MASK = 0
_V4_ENCODERS_MASK = 0
_2THETACOUNTS = 1
; 2THETA  PSD
   5.0000        283
   5.1858        241
   5.3715        241
   5.5573        239
   5.7430        214
   5.9288        201
   6.1145        190
   6.3003        176
   6.4860        211
   6.6718        150
   6.8576        184
   7.0433        157
   7.2291        145
   7.4148        185
   7.6006        172
   7.7863        177
   7.9721        178
   8.1579        206
   8.3436        180
   8.5294        214
   8.7151        176
   8.9009        211
   9.0866        224
   9.2724        250
   9.4581        213
   9.6439        209
   9.8297        251
  10.0154        235
  10.2012        268
  10.3869        226
  10.5727        234
  10.7584        253
  10.9442        233
  11.1299        240
  11.3157        232
  11.5015        281
  11.6872        261
  11.8730        252
  12.0587        254
  12.2445        247
  12.4302        200
  12.6160        221
  12.8018        235
  12.9875        225
  13.1733        212
  13.3590        228
  13.5448        201
  13.7305        188
  13.9163        186
  14.1020        191
  14.2878        173
  14.4736        157
  14.6593        148
  14.8451        157
  15.0308        195
  15.2166        162
  15.4023        164
  15.5881        141
  15.7738        128
  15.9596        130
  16.1454        160
  16.3311        164
  16.5169        178
  16.7026        169
  16.8884        160
  17.0741        154
  17.2599        162
  17.4457        167
  17.6314        151
  17.8172        165
  18.0029        162
  18.1887        183
  18.3744        169
  18.5602        176
  18.7459        142
  18.9317        169
  19.1175        164
  19.3032        169
  19.4890        144
  19.6747        144
  19.8605        166
  20.0462        195
  20.2320        205
  20.4177        192
  20.6035        170
  20.7893        175
  20.9750        223
  21.1608        231
  21.3465        517
  21.5323        177
  21.7180        199
  21.9038        190
  22.0896        215
  22.2753        183
  22.4611        213
  22.6468        193
  22.8326        180
  23.0183        209
  23.2041        215
  23.3898        215
  23.5756        216
  23.7614        217
  23.9471        199
  24.1329        194
  24.3186        218
  24.5044        209
  24.6901        175
  24.8759        174
  25.0616        191
  25.2474        178
  25.4332        173
  25.6189        180
  25.8047        170
  25.9904        196
  26.1762        174
  26.3619        168
  26.5477        169
  26.7335        189
  26.9192        214
  27.1050        195
  27.2907        231
  27.4765        195
  27.6622        168
  27.8480        182
  28.0337        166
  28.2195        174
  28.4053        186
  28.5910        159
  28.7768        154
  28.9625        160
  29.1483        163
  29.3340        177
  29.5198        153
  29.7055        170
  29.8913        145
  30.0771        163
  30.2628        183
  30.4486        275
  30.6343        155
  30.8201        131
  31.0058        136
  31.1916        155
  31.3774        141
  31.5631        145
  31.7489        150
  31.9346        124
  32.1204        132
  32.3061        138
  32.4919        143
  32.6776        124
  32.8634        129
  33.0492        151
  33.2349        118
  33.4207        118
  33.6064         85
  33.7922        120
  33.9779        104
  34.1637        105
  34.3494        105
  34.5352        131
  34.7210        159
  34.9067        128
  35.0925         94
  35.2782        114
  35.4640         79
  35.6497         90
  35.8355         85
  36.0213         96
  36.2070         96
  36.3928        114
  36.5785         90
  36.7643        104
  36.9500         85
  37.1358        103
  37.3215        101
  37.5073        117
  37.6931         77
  37.8788         82
  38.0646         98
  38.2503         86
  38.4361         74
  38.6218         75
  38.8076         88
  38.9933         73
  39.1791         84
  39.3649         90
  39.5506         71
  39.7364         77
  39.9221         71
  40.1079         73
  40.2936         77
  40.4794         75
  40.6652         74
  40.8509         66
  41.0367         97
  41.2224         65
  41.4082         77
  41.5939         62
  41.7797         66
  41.9654         75
  42.1512         74
  42.3370         72
  42.5227         67
  42.7085         84
  42.8942         74
  43.0800         86
  43.2657         88
  43.4515         89
  43.6372         94
  43.8230         70
  44.0088         73
  44.1945         69
  44.3803         69
  44.5660         78
  44.7518         80
  44.9375         82
  45.1233         64
  45.3091         73
  45.4948         65
  45.6806         51
  45.8663         62
  46.0521         62
  46.2378         65
  46.4236         57
  46.6093         63
  46.7951         67
  46.9809         71
  47.1666         57
  47.3524         77
  47.5381         66
  47.7239         57
  47.9096         63
  48.0954         61
  48.2811         69
  48.4669         72
  48.6527         82
  48.8384         65
  49.0242         77
  49.2099         55
  49.3957         53
  49.5814         71
  49.7672         60
  49.9530         72
  50.1387         71
  50.3245         51
  50.5102         52
  50.6960         47
  50.8817         51
  51.0675         68
  51.2532         64
  51.4390         81
  51.6248         55
  51.8105         70
  51.9963         65
  52.1820         65
  52.3678         60
  52.5535         64
  52.7393         55
  52.9250         65
  53.1108         60
  53.2966         54
  53.4823         81
  53.6681         66
  53.8538         56
  54.0396         66
  54.2253         70
  54.4111         71
  54.5969         61
  54.7826         62
  54.9684         43
  55.1541         69
  55.3399         51
  55.5256         59
  55.7114         53
  55.8971         43
  56.0829         43
  56.2687         60
  56.4544         66
  56.6402         55
  56.8259         46
  57.0117         47
  57.1974         48
  57.3832         41
  57.5689         53
  57.7547         54
  57.9405         71
  58.1262         51
  58.3120         57
  58.4977         51
  58.6835         51
  58.8692         70
  59.0550         56
  59.2408         53
  59.4265         48
  59.6123         60
  59.7980         59
  59.9838         60
  60.0024         43