File: notebooks/data/xrd_data/ML_20220718_46_SJD_4_LaB6-2min.uxd
; (content of file Y:\Sam\Apurva-07-20-2022\puck4\ML_20220718_46_SJD_4_LaB6-2min.raw)
_FILEVERSION = 3
_SAMPLE = ML_20220718_46_SJD_4_LaB6-2min
_+SAMPLE =
_SITE = USA
_USER = Administrator
_GONIOMETER_CODE = 20
; Goniometer : D8 theta/2theta, stage : Unknown
_ATTACHMENTS_CODE = 0
_GONIOMETER_RADIUS = 200.5
_FIXED_DIVSLIT = 0.6
_FIXED_SAMPLESLIT = 0
_SOLLER_SLITS = 2
_FIXED_DETSLIT = 9.55
_MONOCHROMATOR = 0
; Incident beam monochromator : None
_SOLLER_SLITS_2 = N
_THIN_FILM = N
_BETA_FILTER = Y
_FIXED_ANTISLIT = 5.89
_ANALYZER_CODE = 0
; Received beam analyzer : None
_DATEMEASURED = "26-Jul-2022 12:18:04"
_WL_UNIT = A
_WL1 = 1.5406
_WL2 = 1.54439
_WL3 = 1.39222
_WLRATIO = 0.5
_ANODE = Cu
_V4_INF_CREATOR = XRDWizard
_V4_INF_CREATOR_VERSION = V2.9.0.22
_V4_INF_WIZARD_VERSION = V2.9.0.22
_V4_INF_WIZARD_ADDINS = V2.9.0.22
_V4_INF_WIZARD_DOCTYPE = XRD
_V4_INF_OSUSER = McQueenLab
_V4_INF_USER = Administrator
_V4_INF_SITE = USA
_V4_INF_SAMPLEID = ML_20220718_46_SJD_4_LaB6-2min

; Data for range 1
_DRIVE = COUPLED
_STEPTIME = 5.64
_STEPSIZE = 0.0185756
_STEPMODE = C
_START = 5
_THETA = 2.5
_2THETA = 5
_KHI = 0
_PHI = 0
_X = 0
_Y = 0
_Z = 0
_DETECTOR = 5
; Detector type : Unknown
_DETECTORSLIT = unkn
_AUX1 = 0
_AUX2 = 0
_AUX3 = 0
_TIMESTARTED = 15
_TEMP_RATE = -1
_TEMP_DELAY = -1
_KV = 40
_MA = 40
_RANGE_WL = 1.5406
_3DPLANE = 0
_V4_ADDITIONALDETECTOR = 257
_V4_PSD2THETA = 3.3706
_V4_PSDCHANNEL1 = 0
_V4_PSDAPERTURE = 12.68
_V4_PSDTYPE = 5
_V4_PSDFIXED = 0
_V4_COUNTERS_MASK = 4096
_V4_DRIVES_MASK = 0
_V4_ENCODERS_MASK = 0
_2THETACOUNTS = 1
; 2THETA  PSD
   5.0000        126
   5.1858        104
   5.3715         82
   5.5573        125
   5.7430         97
   5.9288         69
   6.1145         88
   6.3003         87
   6.4860         96
   6.6718         83
   6.8576         92
   7.0433         76
   7.2291         72
   7.4148         74
   7.6006         68
   7.7863         90
   7.9721         95
   8.1579        101
   8.3436         93
   8.5294         94
   8.7151         97
   8.9009        120
   9.0866        108
   9.2724        102
   9.4581         94
   9.6439        108
   9.8297        118
  10.0154        132
  10.2012        113
  10.3869        122
  10.5727        114
  10.7584        127
  10.9442        126
  11.1299         97
  11.3157        127
  11.5015        128
  11.6872        103
  11.8730        124
  12.0587        115
  12.2445        104
  12.4302        122
  12.6160        101
  12.8018        104
  12.9875        103
  13.1733        118
  13.3590        121
  13.5448         96
  13.7305         96
  13.9163         90
  14.1020         80
  14.2878         82
  14.4736         85
  14.6593         93
  14.8451         73
  15.0308         94
  15.2166         85
  15.4023         81
  15.5881         56
  15.7738         76
  15.9596         67
  16.1454         69
  16.3311         90
  16.5169         86
  16.7026         92
  16.8884         88
  17.0741         75
  17.2599         65
  17.4457         92
  17.6314         96
  17.8172         78
  18.0029         89
  18.1887         79
  18.3744         90
  18.5602        112
  18.7459         87
  18.9317         88
  19.1175         92
  19.3032         80
  19.4890         93
  19.6747        105
  19.8605         77
  20.0462         86
  20.2320         97
  20.4177         76
  20.6035         88
  20.7893         95
  20.9750        113
  21.1608        127
  21.3465        227
  21.5323         95
  21.7180        106
  21.9038        103
  22.0896         93
  22.2753         94
  22.4611        100
  22.6468        106
  22.8326         88
  23.0183        103
  23.2041         77
  23.3898         85
  23.5756         92
  23.7614         91
  23.9471         82
  24.1329         99
  24.3186         98
  24.5044         90
  24.6901        112
  24.8759         96
  25.0616         95
  25.2474         99
  25.4332        109
  25.6189         97
  25.8047        110
  25.9904         78
  26.1762         95
  26.3619         91
  26.5477         84
  26.7335         90
  26.9192        110
  27.1050        104
  27.2907        114
  27.4765         92
  27.6622         91
  27.8480         89
  28.0337         86
  28.2195         94
  28.4053         89
  28.5910         71
  28.7768         79
  28.9625         85
  29.1483         74
  29.3340         64
  29.5198         88
  29.7055         78
  29.8913         63
  30.0771         88
  30.2628         83
  30.4486         91
  30.6343         84
  30.8201         71
  31.0058         81
  31.1916         64
  31.3774         61
  31.5631         65
  31.7489         67
  31.9346         52
  32.1204         70
  32.3061         59
  32.4919        101
  32.6776         57
  32.8634         60
  33.0492         59
  33.2349         62
  33.4207         66
  33.6064         67
  33.7922         53
  33.9779         53
  34.1637         47
  34.3494         53
  34.5352         66
  34.7210         62
  34.9067         67
  35.0925         56
  35.2782         50
  35.4640         45
  35.6497         51
  35.8355         38
  36.0213         65
  36.2070         33
  36.3928         49
  36.5785         39
  36.7643         54
  36.9500         58
  37.1358         41
  37.3215         48
  37.5073         45
  37.6931         51
  37.8788         44
  38.0646         48
  38.2503         49
  38.4361         47
  38.6218         43
  38.8076         35
  38.9933         37
  39.1791         38
  39.3649         27
  39.5506         40
  39.7364         44
  39.9221         38
  40.1079         38
  40.2936         45
  40.4794         41
  40.6652         43
  40.8509         30
  41.0367         37
  41.2224         49
  41.4082         32
  41.5939         41
  41.7797         36
  41.9654         44
  42.1512         38
  42.3370         37
  42.5227         42
  42.7085         41
  42.8942         32
  43.0800         34
  43.2657         43
  43.4515         30
  43.6372         50
  43.8230         32
  44.0088         28
  44.1945         31
  44.3803         48
  44.5660         33
  44.7518         34
  44.9375         33
  45.1233         34
  45.3091         36
  45.4948         35
  45.6806         43
  45.8663         36
  46.0521         25
  46.2378         30
  46.4236         41
  46.6093         36
  46.7951         29
  46.9809         38
  47.1666         28
  47.3524         30
  47.5381         34
  47.7239         30
  47.9096         35
  48.0954         39
  48.2811         22
  48.4669         36
  48.6527         41
  48.8384         41
  49.0242         34
  49.2099         27
  49.3957         29
  49.5814         36
  49.7672         35
  49.9530         28
  50.1387         25
  50.3245         33
  50.5102         35
  50.6960         29
  50.8817         20
  51.0675         27
  51.2532         26
  51.4390         33
  51.6248         31
  51.8105         25
  51.9963         34
  52.1820         28
  52.3678         39
  52.5535         34
  52.7393         26
  52.9250         22
  53.1108         28
  53.2966         21
  53.4823         28
  53.6681         21
  53.8538         31
  54.0396         35
  54.2253         19
  54.4111         18
  54.5969         20
  54.7826         27
  54.9684         43
  55.1541         27
  55.3399         30
  55.5256         29
  55.7114         27
  55.8971         32
  56.0829         31
  56.2687         18
  56.4544         23
  56.6402         34
  56.8259         25
  57.0117         31
  57.1974         27
  57.3832         30
  57.5689         26
  57.7547         23
  57.9405         17
  58.1262         23
  58.3120         30
  58.4977         29
  58.6835         23
  58.8692         33
  59.0550         28
  59.2408         28
  59.4265         23
  59.6123         25
  59.7980         37
  59.9838         20
  60.0024         30