File: notebooks/data/xrd_data/ML_20220721_21_SJD_4_LaB6-4min.uxd
; (content of file Y:\Sam\Apurva-07-20-2022\puck1\ML_20220721_21_SJD_0_LaB6-4min.raw)
_FILEVERSION = 3
_SAMPLE = ML_20220721_21_SJD_0_LaB6-4min
_+SAMPLE =
_SITE = USA
_USER = Administrator
_GONIOMETER_CODE = 20
; Goniometer : D8 theta/2theta, stage : Unknown
_ATTACHMENTS_CODE = 0
_GONIOMETER_RADIUS = 200.5
_FIXED_DIVSLIT = 0.6
_FIXED_SAMPLESLIT = 0
_SOLLER_SLITS = 2
_FIXED_DETSLIT = 9.55
_MONOCHROMATOR = 0
; Incident beam monochromator : None
_SOLLER_SLITS_2 = N
_THIN_FILM = N
_BETA_FILTER = Y
_FIXED_ANTISLIT = 5.89
_ANALYZER_CODE = 0
; Received beam analyzer : None
_DATEMEASURED = "25-Jul-2022 15:26:41"
_WL_UNIT = A
_WL1 = 1.5406
_WL2 = 1.54439
_WL3 = 1.39222
_WLRATIO = 0.5
_ANODE = Cu
_V4_INF_CREATOR = XRDWizard
_V4_INF_CREATOR_VERSION = V2.9.0.22
_V4_INF_WIZARD_VERSION = V2.9.0.22
_V4_INF_WIZARD_ADDINS = V2.9.0.22
_V4_INF_WIZARD_DOCTYPE = XRD
_V4_INF_OSUSER = McQueenLab
_V4_INF_USER = Administrator
_V4_INF_SITE = USA
_V4_INF_SAMPLEID = ML_20220721_21_SJD_0_LaB6-4min

; Data for range 1
_DRIVE = COUPLED
_STEPTIME = 11.28
_STEPSIZE = 0.0185756
_STEPMODE = C
_START = 5
_THETA = 2.5
_2THETA = 5
_KHI = 0
_PHI = 0
_X = 0
_Y = 0
_Z = 0
_DETECTOR = 5
; Detector type : Unknown
_DETECTORSLIT = unkn
_AUX1 = 0
_AUX2 = 0
_AUX3 = 0
_TIMESTARTED = 15
_TEMP_RATE = -1
_TEMP_DELAY = -1
_KV = 40
_MA = 40
_RANGE_WL = 1.5406
_3DPLANE = 0
_V4_ADDITIONALDETECTOR = 257
_V4_PSD2THETA = 3.3675
_V4_PSDCHANNEL1 = 0
_V4_PSDAPERTURE = 12.68
_V4_PSDTYPE = 5
_V4_PSDFIXED = 0
_V4_COUNTERS_MASK = 4096
_V4_DRIVES_MASK = 0
_V4_ENCODERS_MASK = 0
_2THETACOUNTS = 1
; 2THETA  PSD
   5.0000        267
   5.1858        263
   5.3715        258
   5.5573        223
   5.7430        225
   5.9288        169
   6.1145        212
   6.3003        179
   6.4860        196
   6.6718        161
   6.8576        154
   7.0433        166
   7.2291        161
   7.4148        156
   7.6006        170
   7.7863        180
   7.9721        187
   8.1579        177
   8.3436        217
   8.5294        223
   8.7151        203
   8.9009        196
   9.0866        226
   9.2724        245
   9.4581        222
   9.6439        221
   9.8297        223
  10.0154        230
  10.2012        225
  10.3869        257
  10.5727        249
  10.7584        248
  10.9442        224
  11.1299        278
  11.3157        243
  11.5015        239
  11.6872        220
  11.8730        261
  12.0587        244
  12.2445        238
  12.4302        254
  12.6160        223
  12.8018        216
  12.9875        201
  13.1733        223
  13.3590        200
  13.5448        194
  13.7305        186
  13.9163        202
  14.1020        180
  14.2878        190
  14.4736        183
  14.6593        160
  14.8451        199
  15.0308        163
  15.2166        144
  15.4023        174
  15.5881        161
  15.7738        163
  15.9596        161
  16.1454        162
  16.3311        172
  16.5169        152
  16.7026        149
  16.8884        199
  17.0741        162
  17.2599        168
  17.4457        163
  17.6314        159
  17.8172        155
  18.0029        148
  18.1887        146
  18.3744        163
  18.5602        177
  18.7459        171
  18.9317        169
  19.1175        173
  19.3032        162
  19.4890        190
  19.6747        181
  19.8605        186
  20.0462        158
  20.2320        187
  20.4177        183
  20.6035        183
  20.7893        170
  20.9750        185
  21.1608        241
  21.3465        529
  21.5323        189
  21.7180        195
  21.9038        190
  22.0896        209
  22.2753        190
  22.4611        197
  22.6468        202
  22.8326        193
  23.0183        204
  23.2041        196
  23.3898        200
  23.5756        217
  23.7614        214
  23.9471        188
  24.1329        224
  24.3186        216
  24.5044        189
  24.6901        242
  24.8759        198
  25.0616        209
  25.2474        186
  25.4332        180
  25.6189        189
  25.8047        200
  25.9904        173
  26.1762        179
  26.3619        205
  26.5477        170
  26.7335        182
  26.9192        203
  27.1050        192
  27.2907        234
  27.4765        187
  27.6622        170
  27.8480        158
  28.0337        184
  28.2195        177
  28.4053        154
  28.5910        177
  28.7768        184
  28.9625        148
  29.1483        181
  29.3340        168
  29.5198        151
  29.7055        133
  29.8913        167
  30.0771        155
  30.2628        165
  30.4486        236
  30.6343        151
  30.8201        132
  31.0058        133
  31.1916        159
  31.3774        151
  31.5631        137
  31.7489        148
  31.9346        137
  32.1204        144
  32.3061        133
  32.4919        170
  32.6776        154
  32.8634        122
  33.0492        133
  33.2349        136
  33.4207        122
  33.6064        122
  33.7922        108
  33.9779        110
  34.1637        119
  34.3494        111
  34.5352        110
  34.7210        146
  34.9067        128
  35.0925        109
  35.2782        125
  35.4640        106
  35.6497        101
  35.8355         91
  36.0213         99
  36.2070         85
  36.3928         99
  36.5785        105
  36.7643         97
  36.9500         95
  37.1358        113
  37.3215         99
  37.5073        113
  37.6931         79
  37.8788         85
  38.0646         81
  38.2503         95
  38.4361         86
  38.6218         88
  38.8076         89
  38.9933         79
  39.1791         73
  39.3649         74
  39.5506         78
  39.7364         82
  39.9221         71
  40.1079         73
  40.2936         78
  40.4794         91
  40.6652         82
  40.8509         64
  41.0367         83
  41.2224         91
  41.4082         78
  41.5939         84
  41.7797         72
  41.9654         91
  42.1512         94
  42.3370         70
  42.5227         73
  42.7085         68
  42.8942         78
  43.0800         81
  43.2657        100
  43.4515         97
  43.6372         94
  43.8230         75
  44.0088         79
  44.1945         53
  44.3803         70
  44.5660         79
  44.7518         72
  44.9375         71
  45.1233         78
  45.3091         74
  45.4948         73
  45.6806         72
  45.8663         56
  46.0521         69
  46.2378         78
  46.4236         58
  46.6093         69
  46.7951         60
  46.9809         74
  47.1666         74
  47.3524         58
  47.5381         71
  47.7239         68
  47.9096         67
  48.0954         61
  48.2811         61
  48.4669         54
  48.6527         66
  48.8384         72
  49.0242         85
  49.2099         66
  49.3957         57
  49.5814         55
  49.7672         60
  49.9530         74
  50.1387         56
  50.3245         69
  50.5102         66
  50.6960         59
  50.8817         52
  51.0675         51
  51.2532         67
  51.4390         78
  51.6248         69
  51.8105         57
  51.9963         60
  52.1820         49
  52.3678         55
  52.5535         55
  52.7393         64
  52.9250         54
  53.1108         61
  53.2966         64
  53.4823         70
  53.6681         47
  53.8538         64
  54.0396         60
  54.2253         53
  54.4111         61
  54.5969         57
  54.7826         69
  54.9684         59
  55.1541         61
  55.3399         53
  55.5256         59
  55.7114         61
  55.8971         72
  56.0829         62
  56.2687         55
  56.4544         64
  56.6402         56
  56.8259         54
  57.0117         56
  57.1974         54
  57.3832         59
  57.5689         60
  57.7547         61
  57.9405         56
  58.1262         66
  58.3120         64
  58.4977         65
  58.6835         59
  58.8692         65
  59.0550         70
  59.2408         43
  59.4265         46
  59.6123         43
  59.7980         48
  59.9838         53
  60.0024         57