File: notebooks/data/xrd_data/ML_20220718_45_SJD_4_LaB6-2min.uxd
; (content of file Y:\Sam\Apurva-07-20-2022\puck4\ML_20220718_45_SJD_4_LaB6-2min.raw)
_FILEVERSION = 3
_SAMPLE = ML_20220718_45_SJD_4_LaB6-2min
_+SAMPLE =
_SITE = USA
_USER = Administrator
_GONIOMETER_CODE = 20
; Goniometer : D8 theta/2theta, stage : Unknown
_ATTACHMENTS_CODE = 0
_GONIOMETER_RADIUS = 200.5
_FIXED_DIVSLIT = 0.6
_FIXED_SAMPLESLIT = 0
_SOLLER_SLITS = 2
_FIXED_DETSLIT = 9.55
_MONOCHROMATOR = 0
; Incident beam monochromator : None
_SOLLER_SLITS_2 = N
_THIN_FILM = N
_BETA_FILTER = Y
_FIXED_ANTISLIT = 5.89
_ANALYZER_CODE = 0
; Received beam analyzer : None
_DATEMEASURED = "26-Jul-2022 12:15:41"
_WL_UNIT = A
_WL1 = 1.5406
_WL2 = 1.54439
_WL3 = 1.39222
_WLRATIO = 0.5
_ANODE = Cu
_V4_INF_CREATOR = XRDWizard
_V4_INF_CREATOR_VERSION = V2.9.0.22
_V4_INF_WIZARD_VERSION = V2.9.0.22
_V4_INF_WIZARD_ADDINS = V2.9.0.22
_V4_INF_WIZARD_DOCTYPE = XRD
_V4_INF_OSUSER = McQueenLab
_V4_INF_USER = Administrator
_V4_INF_SITE = USA
_V4_INF_SAMPLEID = ML_20220718_45_SJD_4_LaB6-2min

; Data for range 1
_DRIVE = COUPLED
_STEPTIME = 5.64
_STEPSIZE = 0.0185756
_STEPMODE = C
_START = 5
_THETA = 2.5
_2THETA = 5
_KHI = 0
_PHI = 0
_X = 0
_Y = 0
_Z = 0
_DETECTOR = 5
; Detector type : Unknown
_DETECTORSLIT = unkn
_AUX1 = 0
_AUX2 = 0
_AUX3 = 0
_TIMESTARTED = 15
_TEMP_RATE = -1
_TEMP_DELAY = -1
_KV = 40
_MA = 40
_RANGE_WL = 1.5406
_3DPLANE = 0
_V4_ADDITIONALDETECTOR = 257
_V4_PSD2THETA = 3.4135
_V4_PSDCHANNEL1 = 0
_V4_PSDAPERTURE = 12.68
_V4_PSDTYPE = 5
_V4_PSDFIXED = 0
_V4_COUNTERS_MASK = 4096
_V4_DRIVES_MASK = 0
_V4_ENCODERS_MASK = 0
_2THETACOUNTS = 1
; 2THETA  PSD
   5.0000        133
   5.1858        135
   5.3715        118
   5.5573         91
   5.7430        107
   5.9288         98
   6.1145        110
   6.3003         92
   6.4860         80
   6.6718         84
   6.8576         78
   7.0433         88
   7.2291         87
   7.4148         58
   7.6006         66
   7.7863         82
   7.9721         90
   8.1579        106
   8.3436         92
   8.5294        110
   8.7151        107
   8.9009         98
   9.0866         92
   9.2724        105
   9.4581        149
   9.6439        105
   9.8297        123
  10.0154        121
  10.2012        109
  10.3869        117
  10.5727        120
  10.7584        137
  10.9442        134
  11.1299        126
  11.3157        124
  11.5015        123
  11.6872        126
  11.8730        111
  12.0587         96
  12.2445        101
  12.4302        115
  12.6160        107
  12.8018        111
  12.9875        104
  13.1733        106
  13.3590         92
  13.5448         93
  13.7305        102
  13.9163         81
  14.1020         86
  14.2878         84
  14.4736         89
  14.6593         86
  14.8451         79
  15.0308         84
  15.2166         86
  15.4023         66
  15.5881         89
  15.7738         73
  15.9596         80
  16.1454         61
  16.3311         75
  16.5169         95
  16.7026         78
  16.8884         80
  17.0741         62
  17.2599         94
  17.4457         60
  17.6314         74
  17.8172         70
  18.0029         79
  18.1887         90
  18.3744         77
  18.5602         84
  18.7459         90
  18.9317         70
  19.1175         69
  19.3032         85
  19.4890         75
  19.6747         80
  19.8605         86
  20.0462        105
  20.2320         86
  20.4177        102
  20.6035         84
  20.7893         94
  20.9750         97
  21.1608        103
  21.3465        261
  21.5323        105
  21.7180         92
  21.9038         84
  22.0896         87
  22.2753         95
  22.4611        112
  22.6468         83
  22.8326         85
  23.0183        101
  23.2041        110
  23.3898         88
  23.5756         93
  23.7614         80
  23.9471        117
  24.1329        110
  24.3186        104
  24.5044         99
  24.6901        100
  24.8759        107
  25.0616        102
  25.2474         92
  25.4332        111
  25.6189         97
  25.8047         94
  25.9904        104
  26.1762         93
  26.3619        100
  26.5477         86
  26.7335        106
  26.9192         94
  27.1050         91
  27.2907        111
  27.4765         85
  27.6622         80
  27.8480         76
  28.0337         74
  28.2195         76
  28.4053         73
  28.5910         78
  28.7768         76
  28.9625         87
  29.1483         74
  29.3340         86
  29.5198         81
  29.7055         91
  29.8913         80
  30.0771         78
  30.2628         85
  30.4486        130
  30.6343         84
  30.8201         75
  31.0058         66
  31.1916         64
  31.3774         63
  31.5631         66
  31.7489         67
  31.9346         53
  32.1204         77
  32.3061         65
  32.4919         70
  32.6776         76
  32.8634         59
  33.0492         55
  33.2349         62
  33.4207         63
  33.6064         57
  33.7922         54
  33.9779         47
  34.1637         36
  34.3494         55
  34.5352         49
  34.7210         71
  34.9067         59
  35.0925         62
  35.2782         56
  35.4640         46
  35.6497         51
  35.8355         47
  36.0213         44
  36.2070         59
  36.3928         34
  36.5785         46
  36.7643         54
  36.9500         55
  37.1358         45
  37.3215         41
  37.5073         58
  37.6931         31
  37.8788         46
  38.0646         52
  38.2503         48
  38.4361         39
  38.6218         34
  38.8076         46
  38.9933         51
  39.1791         42
  39.3649         43
  39.5506         36
  39.7364         52
  39.9221         35
  40.1079         34
  40.2936         48
  40.4794         31
  40.6652         42
  40.8509         31
  41.0367         41
  41.2224         34
  41.4082         38
  41.5939         39
  41.7797         35
  41.9654         42
  42.1512         44
  42.3370         33
  42.5227         37
  42.7085         45
  42.8942         41
  43.0800         38
  43.2657         30
  43.4515         40
  43.6372         46
  43.8230         34
  44.0088         43
  44.1945         33
  44.3803         37
  44.5660         46
  44.7518         38
  44.9375         35
  45.1233         23
  45.3091         37
  45.4948         41
  45.6806         32
  45.8663         33
  46.0521         42
  46.2378         37
  46.4236         34
  46.6093         28
  46.7951         22
  46.9809         30
  47.1666         30
  47.3524         38
  47.5381         33
  47.7239         36
  47.9096         39
  48.0954         38
  48.2811         28
  48.4669         30
  48.6527         42
  48.8384         37
  49.0242         44
  49.2099         36
  49.3957         24
  49.5814         25
  49.7672         33
  49.9530         28
  50.1387         36
  50.3245         28
  50.5102         29
  50.6960         28
  50.8817         26
  51.0675         32
  51.2532         22
  51.4390         35
  51.6248         38
  51.8105         42
  51.9963         30
  52.1820         28
  52.3678         29
  52.5535         20
  52.7393         38
  52.9250         36
  53.1108         30
  53.2966         19
  53.4823         34
  53.6681         26
  53.8538         24
  54.0396         23
  54.2253         36
  54.4111         24
  54.5969         28
  54.7826         29
  54.9684         27
  55.1541         28
  55.3399         31
  55.5256         35
  55.7114         21
  55.8971         29
  56.0829         29
  56.2687         26
  56.4544         24
  56.6402         41
  56.8259         31
  57.0117         33
  57.1974         27
  57.3832         34
  57.5689         26
  57.7547         26
  57.9405         20
  58.1262         27
  58.3120         17
  58.4977         23
  58.6835         26
  58.8692         28
  59.0550         22
  59.2408         28
  59.4265         18
  59.6123         23
  59.7980         31
  59.9838         31
  60.0024         40