File: notebooks/data/xrd_data/ML_20220718_48_SJD_4_LaB6-4min.csv
;,2THETA,
5.0000,259
5.1858,252
5.3715,208
5.5573,232
5.7430,233
5.9288,205
6.1145,167
6.3003,188
6.4860,177
6.6718,162
6.8576,175
7.0433,165
7.2291,170
7.4148,150
7.6006,149
7.7863,174
7.9721,181
8.1579,185
8.3436,187
8.5294,171
8.7151,191
8.9009,220
9.0866,206
9.2724,214
9.4581,217
9.6439,210
9.8297,210
10.0154,250
10.2012,245
10.3869,227
10.5727,239
10.7584,228
10.9442,243
11.1299,209
11.3157,244
11.5015,247
11.6872,233
11.8730,224
12.0587,212
12.2445,215
12.4302,191
12.6160,225
12.8018,237
12.9875,211
13.1733,209
13.3590,205
13.5448,189
13.7305,194
13.9163,209
14.1020,201
14.2878,181
14.4736,159
14.6593,168
14.8451,185
15.0308,172
15.2166,175
15.4023,152
15.5881,153
15.7738,153
15.9596,191
16.1454,195
16.3311,162
16.5169,171
16.7026,154
16.8884,142
17.0741,157
17.2599,144
17.4457,142
17.6314,167
17.8172,165
18.0029,153
18.1887,173
18.3744,161
18.5602,171
18.7459,148
18.9317,163
19.1175,187
19.3032,170
19.4890,161
19.6747,165
19.8605,185
20.0462,195
20.2320,189
20.4177,169
20.6035,181
20.7893,208
20.9750,188
21.1608,231
21.3465,496
21.5323,219
21.7180,182
21.9038,190
22.0896,170
22.2753,186
22.4611,189
22.6468,171
22.8326,208
23.0183,174
23.2041,190
23.3898,207
23.5756,204
23.7614,225
23.9471,194
24.1329,211
24.3186,232
24.5044,207
24.6901,211
24.8759,204
25.0616,207
25.2474,180
25.4332,200
25.6189,200
25.8047,179
25.9904,195
26.1762,194
26.3619,176
26.5477,171
26.7335,175
26.9192,207
27.1050,187
27.2907,236
27.4765,187
27.6622,181
27.8480,159
28.0337,152
28.2195,155
28.4053,197
28.5910,165
28.7768,171
28.9625,181
29.1483,167
29.3340,152
29.5198,180
29.7055,155
29.8913,153
30.0771,154
30.2628,148
30.4486,237
30.6343,154
30.8201,143
31.0058,146
31.1916,133
31.3774,136
31.5631,131
31.7489,119
31.9346,120
32.1204,133
32.3061,113
32.4919,141
32.6776,132
32.8634,109
33.0492,119
33.2349,112
33.4207,113
33.6064,105
33.7922,135
33.9779,102
34.1637,103
34.3494,101
34.5352,113
34.7210,132
34.9067,111
35.0925,112
35.2782,101
35.4640,97
35.6497,87
35.8355,116
36.0213,75
36.2070,88
36.3928,109
36.5785,77
36.7643,107
36.9500,93
37.1358,86
37.3215,100
37.5073,123
37.6931,91
37.8788,98
38.0646,82
38.2503,82
38.4361,72
38.6218,83
38.8076,94
38.9933,85
39.1791,72
39.3649,76
39.5506,85
39.7364,73
39.9221,94
40.1079,90
40.2936,61
40.4794,96
40.6652,89
40.8509,75
41.0367,87
41.2224,81
41.4082,68
41.5939,90
41.7797,76
41.9654,65
42.1512,82
42.3370,73
42.5227,65
42.7085,79
42.8942,87
43.0800,84
43.2657,90
43.4515,100
43.6372,88
43.8230,74
44.0088,68
44.1945,58
44.3803,69
44.5660,87
44.7518,90
44.9375,73
45.1233,67
45.3091,68
45.4948,76
45.6806,67
45.8663,63
46.0521,60
46.2378,71
46.4236,63
46.6093,62
46.7951,64
46.9809,72
47.1666,68
47.3524,76
47.5381,69
47.7239,72
47.9096,75
48.0954,51
48.2811,63
48.4669,71
48.6527,53
48.8384,61
49.0242,74
49.2099,54
49.3957,52
49.5814,73
49.7672,52
49.9530,57
50.1387,61
50.3245,74
50.5102,59
50.6960,56
50.8817,69
51.0675,57
51.2532,57
51.4390,55
51.6248,63
51.8105,67
51.9963,61
52.1820,52
52.3678,54
52.5535,55
52.7393,54
52.9250,66
53.1108,53
53.2966,67
53.4823,67
53.6681,67
53.8538,62
54.0396,65
54.2253,58
54.4111,59
54.5969,62
54.7826,66
54.9684,48
55.1541,54
55.3399,68
55.5256,61
55.7114,66
55.8971,45
56.0829,64
56.2687,71
56.4544,70
56.6402,44
56.8259,52
57.0117,57
57.1974,69
57.3832,51
57.5689,50
57.7547,50
57.9405,64
58.1262,59
58.3120,57
58.4977,50
58.6835,42
58.8692,56
59.0550,60
59.2408,53
59.4265,47
59.6123,58
59.7980,57
59.9838,48
60.0024,49