File: notebooks/data/xrd_data/ML_20220718_31_SJD_4_LaB6-2min.uxd
; (content of file Y:\Sam\Apurva-07-20-2022\puck4\ML_20220718_31_SJD_0_LaB6-2min.raw)
_FILEVERSION = 3
_SAMPLE = ML_20220718_31_SJD_0_LaB6-2min
_+SAMPLE =
_SITE = USA
_USER = Administrator
_GONIOMETER_CODE = 20
; Goniometer : D8 theta/2theta, stage : Unknown
_ATTACHMENTS_CODE = 0
_GONIOMETER_RADIUS = 200.5
_FIXED_DIVSLIT = 0.6
_FIXED_SAMPLESLIT = 0
_SOLLER_SLITS = 2
_FIXED_DETSLIT = 9.55
_MONOCHROMATOR = 0
; Incident beam monochromator : None
_SOLLER_SLITS_2 = N
_THIN_FILM = N
_BETA_FILTER = Y
_FIXED_ANTISLIT = 5.89
_ANALYZER_CODE = 0
; Received beam analyzer : None
_DATEMEASURED = "26-Jul-2022 09:11:14"
_WL_UNIT = A
_WL1 = 1.5406
_WL2 = 1.54439
_WL3 = 1.39222
_WLRATIO = 0.5
_ANODE = Cu
_V4_INF_CREATOR = XRDWizard
_V4_INF_CREATOR_VERSION = V2.9.0.22
_V4_INF_WIZARD_VERSION = V2.9.0.22
_V4_INF_WIZARD_ADDINS = V2.9.0.22
_V4_INF_WIZARD_DOCTYPE = XRD
_V4_INF_OSUSER = McQueenLab
_V4_INF_USER = Administrator
_V4_INF_SITE = USA
_V4_INF_SAMPLEID = ML_20220718_31_SJD_0_LaB6-2min

; Data for range 1
_DRIVE = COUPLED
_STEPTIME = 5.64
_STEPSIZE = 0.0185756
_STEPMODE = C
_START = 5
_THETA = 2.5
_2THETA = 5
_KHI = 0
_PHI = 0
_X = 0
_Y = 0
_Z = 0
_DETECTOR = 5
; Detector type : Unknown
_DETECTORSLIT = unkn
_AUX1 = 0
_AUX2 = 0
_AUX3 = 0
_TIMESTARTED = 15
_TEMP_RATE = -1
_TEMP_DELAY = -1
_KV = 40
_MA = 40
_RANGE_WL = 1.5406
_3DPLANE = 0
_V4_ADDITIONALDETECTOR = 257
_V4_PSD2THETA = 3.4183
_V4_PSDCHANNEL1 = 0
_V4_PSDAPERTURE = 12.68
_V4_PSDTYPE = 5
_V4_PSDFIXED = 0
_V4_COUNTERS_MASK = 4096
_V4_DRIVES_MASK = 0
_V4_ENCODERS_MASK = 0
_2THETACOUNTS = 1
; 2THETA  PSD
   5.0000        119
   5.1858        121
   5.3715         99
   5.5573        102
   5.7430        114
   5.9288        110
   6.1145         99
   6.3003         91
   6.4860         82
   6.6718        103
   6.8576         90
   7.0433         65
   7.2291         92
   7.4148         74
   7.6006         81
   7.7863         80
   7.9721        103
   8.1579         91
   8.3436         96
   8.5294         84
   8.7151         85
   8.9009         92
   9.0866        111
   9.2724        124
   9.4581        122
   9.6439        116
   9.8297        113
  10.0154        142
  10.2012        122
  10.3869        130
  10.5727        127
  10.7584        121
  10.9442        114
  11.1299        106
  11.3157        112
  11.5015        122
  11.6872        101
  11.8730        109
  12.0587        104
  12.2445        123
  12.4302        118
  12.6160         97
  12.8018        114
  12.9875        104
  13.1733         89
  13.3590        103
  13.5448         91
  13.7305         91
  13.9163         81
  14.1020         82
  14.2878         82
  14.4736         82
  14.6593         87
  14.8451         77
  15.0308         80
  15.2166         63
  15.4023         79
  15.5881         86
  15.7738         73
  15.9596         87
  16.1454         87
  16.3311         79
  16.5169         82
  16.7026         83
  16.8884         76
  17.0741         71
  17.2599         65
  17.4457         75
  17.6314         75
  17.8172         69
  18.0029         79
  18.1887         84
  18.3744        100
  18.5602         83
  18.7459         88
  18.9317        102
  19.1175         83
  19.3032         83
  19.4890         78
  19.6747         76
  19.8605         93
  20.0462         89
  20.2320         89
  20.4177         93
  20.6035         98
  20.7893         92
  20.9750        102
  21.1608        128
  21.3465        246
  21.5323        100
  21.7180         96
  21.9038        108
  22.0896         95
  22.2753        105
  22.4611         88
  22.6468        102
  22.8326        113
  23.0183         97
  23.2041         77
  23.3898        107
  23.5756         91
  23.7614        102
  23.9471         85
  24.1329         82
  24.3186        121
  24.5044        105
  24.6901        114
  24.8759        104
  25.0616         89
  25.2474         87
  25.4332         99
  25.6189        115
  25.8047         67
  25.9904        104
  26.1762        108
  26.3619         89
  26.5477         81
  26.7335        114
  26.9192         55
  27.1050        101
  27.2907         83
  27.4765         98
  27.6622        103
  27.8480         75
  28.0337         93
  28.2195         85
  28.4053         92
  28.5910         80
  28.7768         79
  28.9625         87
  29.1483         73
  29.3340         92
  29.5198         75
  29.7055         80
  29.8913         70
  30.0771         93
  30.2628         88
  30.4486        125
  30.6343         84
  30.8201         80
  31.0058         69
  31.1916         87
  31.3774         76
  31.5631         73
  31.7489         60
  31.9346         70
  32.1204         51
  32.3061         62
  32.4919         76
  32.6776         59
  32.8634         51
  33.0492         68
  33.2349         55
  33.4207         56
  33.6064         59
  33.7922         70
  33.9779         47
  34.1637         53
  34.3494         68
  34.5352         56
  34.7210         51
  34.9067         66
  35.0925         54
  35.2782         57
  35.4640         46
  35.6497         41
  35.8355         42
  36.0213         44
  36.2070         44
  36.3928         48
  36.5785         50
  36.7643         34
  36.9500         32
  37.1358         47
  37.3215         62
  37.5073         46
  37.6931         45
  37.8788         47
  38.0646         56
  38.2503         40
  38.4361         49
  38.6218         49
  38.8076         43
  38.9933         41
  39.1791         32
  39.3649         42
  39.5506         35
  39.7364         30
  39.9221         44
  40.1079         38
  40.2936         38
  40.4794         43
  40.6652         45
  40.8509         40
  41.0367         29
  41.2224         45
  41.4082         43
  41.5939         34
  41.7797         40
  41.9654         41
  42.1512         38
  42.3370         26
  42.5227         40
  42.7085         38
  42.8942         26
  43.0800         48
  43.2657         44
  43.4515         48
  43.6372         62
  43.8230         26
  44.0088         25
  44.1945         41
  44.3803         40
  44.5660         36
  44.7518         40
  44.9375         42
  45.1233         40
  45.3091         36
  45.4948         35
  45.6806         28
  45.8663         31
  46.0521         39
  46.2378         31
  46.4236         34
  46.6093         30
  46.7951         33
  46.9809         28
  47.1666         39
  47.3524         30
  47.5381         34
  47.7239         27
  47.9096         30
  48.0954         27
  48.2811         27
  48.4669         34
  48.6527         26
  48.8384         26
  49.0242         40
  49.2099         35
  49.3957         22
  49.5814         30
  49.7672         34
  49.9530         34
  50.1387         36
  50.3245         34
  50.5102         32
  50.6960         32
  50.8817         36
  51.0675         29
  51.2532         34
  51.4390         30
  51.6248         30
  51.8105         29
  51.9963         19
  52.1820         27
  52.3678         36
  52.5535         36
  52.7393         31
  52.9250         27
  53.1108         30
  53.2966         34
  53.4823         23
  53.6681         27
  53.8538         34
  54.0396         35
  54.2253         20
  54.4111         27
  54.5969         30
  54.7826         28
  54.9684         28
  55.1541         25
  55.3399         32
  55.5256         32
  55.7114         34
  55.8971         31
  56.0829         35
  56.2687         27
  56.4544         21
  56.6402         23
  56.8259         24
  57.0117         25
  57.1974         29
  57.3832         24
  57.5689         31
  57.7547         23
  57.9405         27
  58.1262         32
  58.3120         30
  58.4977         28
  58.6835         26
  58.8692         30
  59.0550         26
  59.2408         25
  59.4265         38
  59.6123         23
  59.7980         28
  59.9838         32
  60.0024         17