File: notebooks/data/xrd_data/ML_20220720_35_SJD_4_LaB6-1min.csv
;,2THETA,
5.0000,100
5.1858,82
5.3715,108
5.5573,77
5.7430,71
5.9288,88
6.1145,72
6.3003,65
6.4860,65
6.6718,56
6.8576,54
7.0433,55
7.2291,52
7.4148,55
7.6006,62
7.7863,56
7.9721,79
8.1579,58
8.3436,77
8.5294,80
8.7151,83
8.9009,80
9.0866,63
9.2724,80
9.4581,100
9.6439,72
9.8297,86
10.0154,86
10.2012,99
10.3869,88
10.5727,102
10.7584,84
10.9442,86
11.1299,77
11.3157,81
11.5015,90
11.6872,72
11.8730,83
12.0587,83
12.2445,84
12.4302,73
12.6160,79
12.8018,82
12.9875,75
13.1733,75
13.3590,68
13.5448,69
13.7305,61
13.9163,64
14.1020,68
14.2878,63
14.4736,73
14.6593,58
14.8451,57
15.0308,72
15.2166,59
15.4023,43
15.5881,59
15.7738,59
15.9596,53
16.1454,62
16.3311,56
16.5169,63
16.7026,58
16.8884,51
17.0741,52
17.2599,56
17.4457,53
17.6314,67
17.8172,68
18.0029,65
18.1887,63
18.3744,53
18.5602,65
18.7459,81
18.9317,66
19.1175,53
19.3032,64
19.4890,67
19.6747,63
19.8605,55
20.0462,53
20.2320,65
20.4177,66
20.6035,75
20.7893,65
20.9750,60
21.1608,81
21.3465,197
21.5323,74
21.7180,73
21.9038,68
22.0896,73
22.2753,67
22.4611,69
22.6468,79
22.8326,94
23.0183,57
23.2041,85
23.3898,76
23.5756,85
23.7614,81
23.9471,85
24.1329,78
24.3186,73
24.5044,74
24.6901,74
24.8759,81
25.0616,80
25.2474,81
25.4332,82
25.6189,70
25.8047,65
25.9904,73
26.1762,75
26.3619,71
26.5477,71
26.7335,76
26.9192,76
27.1050,73
27.2907,90
27.4765,70
27.6622,70
27.8480,67
28.0337,60
28.2195,69
28.4053,54
28.5910,61
28.7768,59
28.9625,51
29.1483,70
29.3340,62
29.5198,59
29.7055,52
29.8913,50
30.0771,64
30.2628,59
30.4486,106
30.6343,60
30.8201,63
31.0058,47
31.1916,50
31.3774,54
31.5631,52
31.7489,44
31.9346,58
32.1204,56
32.3061,45
32.4919,53
32.6776,45
32.8634,52
33.0492,41
33.2349,49
33.4207,39
33.6064,43
33.7922,46
33.9779,31
34.1637,50
34.3494,45
34.5352,41
34.7210,43
34.9067,54
35.0925,31
35.2782,36
35.4640,48
35.6497,46
35.8355,37
36.0213,39
36.2070,27
36.3928,29
36.5785,43
36.7643,34
36.9500,31
37.1358,29
37.3215,37
37.5073,42
37.6931,27
37.8788,31
38.0646,37
38.2503,35
38.4361,33
38.6218,40
38.8076,26
38.9933,23
39.1791,19
39.3649,35
39.5506,31
39.7364,32
39.9221,26
40.1079,35
40.2936,23
40.4794,25
40.6652,31
40.8509,33
41.0367,22
41.2224,25
41.4082,30
41.5939,30
41.7797,27
41.9654,30
42.1512,28
42.3370,40
42.5227,25
42.7085,23
42.8942,21
43.0800,23
43.2657,23
43.4515,32
43.6372,38
43.8230,29
44.0088,21
44.1945,24
44.3803,27
44.5660,24
44.7518,33
44.9375,26
45.1233,28
45.3091,26
45.4948,23
45.6806,33
45.8663,22
46.0521,33
46.2378,29
46.4236,26
46.6093,27
46.7951,26
46.9809,22
47.1666,33
47.3524,25
47.5381,16
47.7239,23
47.9096,26
48.0954,23
48.2811,33
48.4669,23
48.6527,24
48.8384,29
49.0242,28
49.2099,24
49.3957,20
49.5814,20
49.7672,15
49.9530,15
50.1387,20
50.3245,13
50.5102,26
50.6960,26
50.8817,26
51.0675,25
51.2532,20
51.4390,32
51.6248,27
51.8105,24
51.9963,35
52.1820,19
52.3678,26
52.5535,22
52.7393,28
52.9250,23
53.1108,27
53.2966,18
53.4823,14
53.6681,27
53.8538,22
54.0396,26
54.2253,16
54.4111,21
54.5969,22
54.7826,14
54.9684,19
55.1541,26
55.3399,22
55.5256,29
55.7114,25
55.8971,20
56.0829,19
56.2687,27
56.4544,23
56.6402,14
56.8259,14
57.0117,26
57.1974,19
57.3832,22
57.5689,25
57.7547,25
57.9405,19
58.1262,23
58.3120,23
58.4977,20
58.6835,19
58.8692,19
59.0550,17
59.2408,17
59.4265,25
59.6123,22
59.7980,18
59.9838,16
60.0024,15