File: notebooks/data/xrd_data/ML_20220721_18_SJD_4_LaB6-4min.uxd
; (content of file Y:\Sam\Apurva-07-20-2022\puck1\ML_20220721_18_SJD_0_LaB6-4min.raw)
_FILEVERSION = 3
_SAMPLE = ML_20220721_18_SJD_0_LaB6-4min
_+SAMPLE =
_SITE = USA
_USER = Administrator
_GONIOMETER_CODE = 20
; Goniometer : D8 theta/2theta, stage : Unknown
_ATTACHMENTS_CODE = 0
_GONIOMETER_RADIUS = 200.5
_FIXED_DIVSLIT = 0.6
_FIXED_SAMPLESLIT = 0
_SOLLER_SLITS = 2
_FIXED_DETSLIT = 9.55
_MONOCHROMATOR = 0
; Incident beam monochromator : None
_SOLLER_SLITS_2 = N
_THIN_FILM = N
_BETA_FILTER = Y
_FIXED_ANTISLIT = 5.89
_ANALYZER_CODE = 0
; Received beam analyzer : None
_DATEMEASURED = "25-Jul-2022 15:13:15"
_WL_UNIT = A
_WL1 = 1.5406
_WL2 = 1.54439
_WL3 = 1.39222
_WLRATIO = 0.5
_ANODE = Cu
_V4_INF_CREATOR = XRDWizard
_V4_INF_CREATOR_VERSION = V2.9.0.22
_V4_INF_WIZARD_VERSION = V2.9.0.22
_V4_INF_WIZARD_ADDINS = V2.9.0.22
_V4_INF_WIZARD_DOCTYPE = XRD
_V4_INF_OSUSER = McQueenLab
_V4_INF_USER = Administrator
_V4_INF_SITE = USA
_V4_INF_SAMPLEID = ML_20220721_18_SJD_0_LaB6-4min

; Data for range 1
_DRIVE = COUPLED
_STEPTIME = 11.28
_STEPSIZE = 0.0185756
_STEPMODE = C
_START = 5
_THETA = 2.5
_2THETA = 5
_KHI = 0
_PHI = 0
_X = 0
_Y = 0
_Z = 0
_DETECTOR = 5
; Detector type : Unknown
_DETECTORSLIT = unkn
_AUX1 = 0
_AUX2 = 0
_AUX3 = 0
_TIMESTARTED = 15
_TEMP_RATE = -1
_TEMP_DELAY = -1
_KV = 40
_MA = 40
_RANGE_WL = 1.5406
_3DPLANE = 0
_V4_ADDITIONALDETECTOR = 257
_V4_PSD2THETA = 3.365
_V4_PSDCHANNEL1 = 0
_V4_PSDAPERTURE = 12.68
_V4_PSDTYPE = 5
_V4_PSDFIXED = 0
_V4_COUNTERS_MASK = 4096
_V4_DRIVES_MASK = 0
_V4_ENCODERS_MASK = 0
_2THETACOUNTS = 1
; 2THETA  PSD
   5.0000        288
   5.1858        303
   5.3715        225
   5.5573        244
   5.7430        197
   5.9288        208
   6.1145        205
   6.3003        208
   6.4860        182
   6.6718        190
   6.8576        167
   7.0433        157
   7.2291        175
   7.4148        170
   7.6006        184
   7.7863        177
   7.9721        182
   8.1579        220
   8.3436        209
   8.5294        199
   8.7151        185
   8.9009        204
   9.0866        247
   9.2724        225
   9.4581        234
   9.6439        242
   9.8297        262
  10.0154        234
  10.2012        267
  10.3869        249
  10.5727        255
  10.7584        250
  10.9442        238
  11.1299        205
  11.3157        250
  11.5015        237
  11.6872        243
  11.8730        234
  12.0587        236
  12.2445        254
  12.4302        212
  12.6160        209
  12.8018        199
  12.9875        192
  13.1733        190
  13.3590        195
  13.5448        179
  13.7305        197
  13.9163        203
  14.1020        177
  14.2878        173
  14.4736        166
  14.6593        183
  14.8451        158
  15.0308        171
  15.2166        144
  15.4023        154
  15.5881        166
  15.7738        184
  15.9596        164
  16.1454        182
  16.3311        163
  16.5169        170
  16.7026        143
  16.8884        165
  17.0741        176
  17.2599        171
  17.4457        170
  17.6314        174
  17.8172        174
  18.0029        164
  18.1887        149
  18.3744        176
  18.5602        166
  18.7459        181
  18.9317        174
  19.1175        156
  19.3032        157
  19.4890        187
  19.6747        172
  19.8605        181
  20.0462        207
  20.2320        198
  20.4177        191
  20.6035        179
  20.7893        202
  20.9750        192
  21.1608        226
  21.3465        510
  21.5323        224
  21.7180        214
  21.9038        189
  22.0896        192
  22.2753        195
  22.4611        213
  22.6468        197
  22.8326        187
  23.0183        213
  23.2041        192
  23.3898        226
  23.5756        200
  23.7614        210
  23.9471        200
  24.1329        205
  24.3186        239
  24.5044        243
  24.6901        221
  24.8759        214
  25.0616        222
  25.2474        199
  25.4332        201
  25.6189        216
  25.8047        208
  25.9904        181
  26.1762        179
  26.3619        197
  26.5477        189
  26.7335        201
  26.9192        197
  27.1050        190
  27.2907        219
  27.4765        191
  27.6622        174
  27.8480        180
  28.0337        172
  28.2195        174
  28.4053        171
  28.5910        182
  28.7768        181
  28.9625        138
  29.1483        183
  29.3340        173
  29.5198        167
  29.7055        162
  29.8913        181
  30.0771        152
  30.2628        161
  30.4486        228
  30.6343        149
  30.8201        142
  31.0058        160
  31.1916        141
  31.3774        136
  31.5631        157
  31.7489        130
  31.9346        150
  32.1204        154
  32.3061        122
  32.4919        150
  32.6776        114
  32.8634        121
  33.0492        106
  33.2349        130
  33.4207        139
  33.6064        123
  33.7922        112
  33.9779        129
  34.1637        129
  34.3494        103
  34.5352        133
  34.7210        151
  34.9067        116
  35.0925         95
  35.2782         93
  35.4640        104
  35.6497        103
  35.8355        115
  36.0213         90
  36.2070         93
  36.3928        114
  36.5785         98
  36.7643         89
  36.9500         89
  37.1358         99
  37.3215        105
  37.5073        122
  37.6931         90
  37.8788        101
  38.0646         86
  38.2503         78
  38.4361         65
  38.6218         94
  38.8076         89
  38.9933         75
  39.1791         96
  39.3649         79
  39.5506         74
  39.7364         87
  39.9221         72
  40.1079         84
  40.2936         86
  40.4794         82
  40.6652         61
  40.8509         73
  41.0367         82
  41.2224         79
  41.4082         71
  41.5939         77
  41.7797         84
  41.9654         81
  42.1512         66
  42.3370         91
  42.5227         82
  42.7085         57
  42.8942         75
  43.0800         74
  43.2657         88
  43.4515         94
  43.6372         96
  43.8230         79
  44.0088         67
  44.1945         85
  44.3803         67
  44.5660         82
  44.7518         80
  44.9375         71
  45.1233         76
  45.3091         77
  45.4948         59
  45.6806         61
  45.8663         72
  46.0521         76
  46.2378         65
  46.4236         82
  46.6093         55
  46.7951         65
  46.9809         76
  47.1666         72
  47.3524         64
  47.5381         69
  47.7239         79
  47.9096         64
  48.0954         67
  48.2811         74
  48.4669         61
  48.6527         62
  48.8384         61
  49.0242         82
  49.2099         71
  49.3957         57
  49.5814         50
  49.7672         55
  49.9530         61
  50.1387         80
  50.3245         58
  50.5102         70
  50.6960         57
  50.8817         75
  51.0675         64
  51.2532         73
  51.4390         75
  51.6248         60
  51.8105         75
  51.9963         60
  52.1820         57
  52.3678         65
  52.5535         64
  52.7393         54
  52.9250         70
  53.1108         50
  53.2966         59
  53.4823         72
  53.6681         54
  53.8538         52
  54.0396         67
  54.2253         79
  54.4111         53
  54.5969         46
  54.7826         65
  54.9684         66
  55.1541         59
  55.3399         60
  55.5256         53
  55.7114         60
  55.8971         64
  56.0829         65
  56.2687         76
  56.4544         57
  56.6402         46
  56.8259         65
  57.0117         52
  57.1974         50
  57.3832         55
  57.5689         63
  57.7547         48
  57.9405         53
  58.1262         55
  58.3120         49
  58.4977         46
  58.6835         61
  58.8692         54
  59.0550         50
  59.2408         53
  59.4265         40
  59.6123         52
  59.7980         55
  59.9838         54
  60.0024         58