File: notebooks/data/xrd_data/ML_20220720_3_SJD_4_LaB6-1min.csv
;,2THETA,
5.0000,98
5.1858,78
5.3715,76
5.5573,74
5.7430,70
5.9288,73
6.1145,59
6.3003,65
6.4860,71
6.6718,51
6.8576,65
7.0433,60
7.2291,50
7.4148,57
7.6006,52
7.7863,68
7.9721,64
8.1579,63
8.3436,68
8.5294,93
8.7151,63
8.9009,82
9.0866,73
9.2724,77
9.4581,80
9.6439,87
9.8297,65
10.0154,69
10.2012,80
10.3869,89
10.5727,82
10.7584,95
10.9442,74
11.1299,87
11.3157,99
11.5015,83
11.6872,99
11.8730,84
12.0587,65
12.2445,74
12.4302,71
12.6160,88
12.8018,78
12.9875,69
13.1733,78
13.3590,70
13.5448,56
13.7305,56
13.9163,76
14.1020,78
14.2878,75
14.4736,74
14.6593,49
14.8451,64
15.0308,62
15.2166,73
15.4023,65
15.5881,75
15.7738,56
15.9596,56
16.1454,50
16.3311,54
16.5169,52
16.7026,58
16.8884,42
17.0741,65
17.2599,60
17.4457,65
17.6314,67
17.8172,49
18.0029,51
18.1887,67
18.3744,69
18.5602,51
18.7459,69
18.9317,73
19.1175,71
19.3032,50
19.4890,73
19.6747,62
19.8605,74
20.0462,65
20.2320,64
20.4177,62
20.6035,80
20.7893,74
20.9750,69
21.1608,105
21.3465,190
21.5323,66
21.7180,77
21.9038,66
22.0896,73
22.2753,82
22.4611,78
22.6468,74
22.8326,79
23.0183,80
23.2041,73
23.3898,98
23.5756,76
23.7614,66
23.9471,82
24.1329,64
24.3186,77
24.5044,59
24.6901,83
24.8759,62
25.0616,79
25.2474,56
25.4332,63
25.6189,74
25.8047,73
25.9904,80
26.1762,73
26.3619,59
26.5477,66
26.7335,71
26.9192,65
27.1050,86
27.2907,92
27.4765,70
27.6622,67
27.8480,54
28.0337,66
28.2195,60
28.4053,58
28.5910,66
28.7768,50
28.9625,51
29.1483,46
29.3340,62
29.5198,45
29.7055,54
29.8913,54
30.0771,44
30.2628,44
30.4486,97
30.6343,52
30.8201,71
31.0058,51
31.1916,57
31.3774,48
31.5631,43
31.7489,59
31.9346,53
32.1204,41
32.3061,35
32.4919,40
32.6776,47
32.8634,43
33.0492,52
33.2349,45
33.4207,42
33.6064,42
33.7922,51
33.9779,41
34.1637,53
34.3494,42
34.5352,54
34.7210,60
34.9067,42
35.0925,36
35.2782,31
35.4640,38
35.6497,44
35.8355,34
36.0213,38
36.2070,28
36.3928,33
36.5785,35
36.7643,23
36.9500,36
37.1358,37
37.3215,31
37.5073,44
37.6931,39
37.8788,38
38.0646,42
38.2503,22
38.4361,35
38.6218,34
38.8076,25
38.9933,30
39.1791,28
39.3649,23
39.5506,24
39.7364,30
39.9221,21
40.1079,27
40.2936,39
40.4794,29
40.6652,27
40.8509,27
41.0367,34
41.2224,32
41.4082,38
41.5939,30
41.7797,19
41.9654,23
42.1512,23
42.3370,26
42.5227,25
42.7085,26
42.8942,29
43.0800,27
43.2657,31
43.4515,36
43.6372,26
43.8230,28
44.0088,19
44.1945,28
44.3803,31
44.5660,20
44.7518,32
44.9375,14
45.1233,27
45.3091,27
45.4948,30
45.6806,23
45.8663,19
46.0521,15
46.2378,26
46.4236,28
46.6093,14
46.7951,29
46.9809,26
47.1666,25
47.3524,25
47.5381,25
47.7239,21
47.9096,33
48.0954,32
48.2811,29
48.4669,22
48.6527,26
48.8384,26
49.0242,27
49.2099,27
49.3957,24
49.5814,20
49.7672,26
49.9530,27
50.1387,20
50.3245,29
50.5102,30
50.6960,19
50.8817,17
51.0675,15
51.2532,22
51.4390,32
51.6248,26
51.8105,29
51.9963,24
52.1820,13
52.3678,23
52.5535,18
52.7393,25
52.9250,21
53.1108,26
53.2966,23
53.4823,14
53.6681,26
53.8538,20
54.0396,18
54.2253,26
54.4111,17
54.5969,19
54.7826,23
54.9684,19
55.1541,30
55.3399,15
55.5256,19
55.7114,16
55.8971,30
56.0829,22
56.2687,21
56.4544,18
56.6402,22
56.8259,18
57.0117,22
57.1974,20
57.3832,21
57.5689,17
57.7547,22
57.9405,28
58.1262,18
58.3120,16
58.4977,18
58.6835,16
58.8692,15
59.0550,12
59.2408,23
59.4265,16
59.6123,17
59.7980,20
59.9838,12
60.0024,21