File: notebooks/data/xrd_data/ML_20220718_43_SJD_4_LaB6-4min.csv
;,2THETA,
5.0000,280
5.1858,249
5.3715,263
5.5573,232
5.7430,236
5.9288,210
6.1145,201
6.3003,183
6.4860,177
6.6718,153
6.8576,153
7.0433,149
7.2291,154
7.4148,166
7.6006,166
7.7863,183
7.9721,187
8.1579,173
8.3436,188
8.5294,178
8.7151,203
8.9009,217
9.0866,206
9.2724,241
9.4581,233
9.6439,233
9.8297,250
10.0154,259
10.2012,220
10.3869,211
10.5727,260
10.7584,221
10.9442,235
11.1299,239
11.3157,247
11.5015,223
11.6872,248
11.8730,211
12.0587,211
12.2445,224
12.4302,228
12.6160,209
12.8018,211
12.9875,205
13.1733,190
13.3590,194
13.5448,197
13.7305,173
13.9163,199
14.1020,178
14.2878,188
14.4736,151
14.6593,155
14.8451,173
15.0308,156
15.2166,147
15.4023,150
15.5881,142
15.7738,149
15.9596,166
16.1454,165
16.3311,166
16.5169,168
16.7026,168
16.8884,170
17.0741,149
17.2599,148
17.4457,166
17.6314,196
17.8172,154
18.0029,173
18.1887,155
18.3744,160
18.5602,188
18.7459,153
18.9317,172
19.1175,148
19.3032,182
19.4890,176
19.6747,182
19.8605,171
20.0462,168
20.2320,187
20.4177,163
20.6035,172
20.7893,203
20.9750,214
21.1608,230
21.3465,514
21.5323,173
21.7180,189
21.9038,202
22.0896,159
22.2753,193
22.4611,203
22.6468,206
22.8326,174
23.0183,197
23.2041,195
23.3898,222
23.5756,220
23.7614,218
23.9471,217
24.1329,182
24.3186,231
24.5044,215
24.6901,208
24.8759,213
25.0616,177
25.2474,186
25.4332,194
25.6189,211
25.8047,185
25.9904,201
26.1762,202
26.3619,197
26.5477,189
26.7335,185
26.9192,188
27.1050,177
27.2907,192
27.4765,160
27.6622,173
27.8480,183
28.0337,204
28.2195,186
28.4053,186
28.5910,164
28.7768,177
28.9625,139
29.1483,170
29.3340,154
29.5198,148
29.7055,141
29.8913,144
30.0771,166
30.2628,167
30.4486,225
30.6343,153
30.8201,155
31.0058,145
31.1916,142
31.3774,132
31.5631,160
31.7489,131
31.9346,145
32.1204,122
32.3061,128
32.4919,165
32.6776,128
32.8634,139
33.0492,105
33.2349,152
33.4207,105
33.6064,118
33.7922,128
33.9779,115
34.1637,85
34.3494,115
34.5352,121
34.7210,151
34.9067,118
35.0925,115
35.2782,101
35.4640,97
35.6497,85
35.8355,93
36.0213,113
36.2070,96
36.3928,107
36.5785,91
36.7643,86
36.9500,87
37.1358,105
37.3215,91
37.5073,106
37.6931,87
37.8788,78
38.0646,74
38.2503,71
38.4361,80
38.6218,90
38.8076,73
38.9933,88
39.1791,75
39.3649,80
39.5506,69
39.7364,72
39.9221,68
40.1079,84
40.2936,67
40.4794,71
40.6652,82
40.8509,65
41.0367,83
41.2224,97
41.4082,80
41.5939,74
41.7797,81
41.9654,76
42.1512,86
42.3370,72
42.5227,66
42.7085,84
42.8942,59
43.0800,74
43.2657,103
43.4515,67
43.6372,101
43.8230,82
44.0088,78
44.1945,79
44.3803,72
44.5660,80
44.7518,83
44.9375,79
45.1233,69
45.3091,62
45.4948,75
45.6806,72
45.8663,72
46.0521,77
46.2378,64
46.4236,76
46.6093,70
46.7951,70
46.9809,63
47.1666,62
47.3524,58
47.5381,60
47.7239,69
47.9096,60
48.0954,59
48.2811,69
48.4669,55
48.6527,68
48.8384,78
49.0242,71
49.2099,60
49.3957,52
49.5814,54
49.7672,56
49.9530,63
50.1387,59
50.3245,64
50.5102,45
50.6960,65
50.8817,60
51.0675,58
51.2532,63
51.4390,74
51.6248,59
51.8105,72
51.9963,76
52.1820,56
52.3678,55
52.5535,54
52.7393,61
52.9250,67
53.1108,47
53.2966,46
53.4823,57
53.6681,82
53.8538,50
54.0396,64
54.2253,67
54.4111,63
54.5969,64
54.7826,61
54.9684,58
55.1541,57
55.3399,57
55.5256,50
55.7114,64
55.8971,51
56.0829,67
56.2687,59
56.4544,62
56.6402,67
56.8259,52
57.0117,57
57.1974,67
57.3832,59
57.5689,49
57.7547,50
57.9405,61
58.1262,57
58.3120,50
58.4977,51
58.6835,51
58.8692,52
59.0550,57
59.2408,57
59.4265,69
59.6123,67
59.7980,54
59.9838,46
60.0024,44