File: notebooks/data/xrd_data/ML_20220721_29_SJD_4_LaB6-4min.csv
;,2THETA,
5.0000,285
5.1858,247
5.3715,203
5.5573,229
5.7430,200
5.9288,192
6.1145,200
6.3003,180
6.4860,196
6.6718,172
6.8576,157
7.0433,160
7.2291,167
7.4148,163
7.6006,179
7.7863,191
7.9721,173
8.1579,204
8.3436,198
8.5294,207
8.7151,194
8.9009,216
9.0866,196
9.2724,206
9.4581,219
9.6439,227
9.8297,240
10.0154,217
10.2012,249
10.3869,249
10.5727,219
10.7584,238
10.9442,240
11.1299,235
11.3157,239
11.5015,247
11.6872,233
11.8730,207
12.0587,261
12.2445,239
12.4302,233
12.6160,221
12.8018,222
12.9875,217
13.1733,211
13.3590,198
13.5448,175
13.7305,183
13.9163,201
14.1020,190
14.2878,184
14.4736,173
14.6593,159
14.8451,153
15.0308,195
15.2166,168
15.4023,183
15.5881,162
15.7738,195
15.9596,163
16.1454,150
16.3311,165
16.5169,164
16.7026,159
16.8884,177
17.0741,156
17.2599,156
17.4457,137
17.6314,162
17.8172,169
18.0029,148
18.1887,185
18.3744,171
18.5602,150
18.7459,172
18.9317,171
19.1175,159
19.3032,171
19.4890,191
19.6747,154
19.8605,178
20.0462,173
20.2320,153
20.4177,166
20.6035,180
20.7893,178
20.9750,186
21.1608,209
21.3465,521
21.5323,199
21.7180,203
21.9038,208
22.0896,190
22.2753,221
22.4611,216
22.6468,204
22.8326,202
23.0183,204
23.2041,195
23.3898,187
23.5756,200
23.7614,204
23.9471,196
24.1329,202
24.3186,204
24.5044,214
24.6901,195
24.8759,196
25.0616,205
25.2474,199
25.4332,213
25.6189,196
25.8047,192
25.9904,226
26.1762,194
26.3619,205
26.5477,191
26.7335,200
26.9192,185
27.1050,209
27.2907,244
27.4765,186
27.6622,188
27.8480,182
28.0337,180
28.2195,151
28.4053,173
28.5910,171
28.7768,165
28.9625,156
29.1483,170
29.3340,169
29.5198,170
29.7055,159
29.8913,149
30.0771,158
30.2628,158
30.4486,285
30.6343,149
30.8201,154
31.0058,137
31.1916,138
31.3774,152
31.5631,125
31.7489,140
31.9346,121
32.1204,134
32.3061,136
32.4919,130
32.6776,156
32.8634,128
33.0492,106
33.2349,118
33.4207,97
33.6064,108
33.7922,125
33.9779,131
34.1637,122
34.3494,107
34.5352,126
34.7210,152
34.9067,125
35.0925,97
35.2782,111
35.4640,107
35.6497,112
35.8355,91
36.0213,94
36.2070,98
36.3928,106
36.5785,101
36.7643,98
36.9500,97
37.1358,90
37.3215,98
37.5073,108
37.6931,105
37.8788,71
38.0646,89
38.2503,106
38.4361,82
38.6218,83
38.8076,102
38.9933,75
39.1791,87
39.3649,74
39.5506,91
39.7364,78
39.9221,66
40.1079,80
40.2936,74
40.4794,84
40.6652,83
40.8509,83
41.0367,63
41.2224,82
41.4082,84
41.5939,67
41.7797,65
41.9654,68
42.1512,90
42.3370,84
42.5227,61
42.7085,96
42.8942,87
43.0800,74
43.2657,81
43.4515,87
43.6372,112
43.8230,71
44.0088,73
44.1945,73
44.3803,85
44.5660,63
44.7518,92
44.9375,64
45.1233,75
45.3091,66
45.4948,70
45.6806,69
45.8663,66
46.0521,78
46.2378,62
46.4236,65
46.6093,59
46.7951,59
46.9809,78
47.1666,59
47.3524,63
47.5381,60
47.7239,71
47.9096,66
48.0954,50
48.2811,59
48.4669,57
48.6527,59
48.8384,75
49.0242,78
49.2099,56
49.3957,57
49.5814,54
49.7672,54
49.9530,59
50.1387,65
50.3245,50
50.5102,66
50.6960,62
50.8817,54
51.0675,61
51.2532,73
51.4390,85
51.6248,57
51.8105,52
51.9963,58
52.1820,59
52.3678,41
52.5535,56
52.7393,54
52.9250,52
53.1108,62
53.2966,68
53.4823,72
53.6681,56
53.8538,47
54.0396,68
54.2253,49
54.4111,58
54.5969,50
54.7826,59
54.9684,67
55.1541,69
55.3399,62
55.5256,55
55.7114,61
55.8971,51
56.0829,59
56.2687,66
56.4544,65
56.6402,54
56.8259,58
57.0117,72
57.1974,55
57.3832,49
57.5689,34
57.7547,76
57.9405,54
58.1262,45
58.3120,48
58.4977,60
58.6835,44
58.8692,55
59.0550,54
59.2408,55
59.4265,59
59.6123,62
59.7980,61
59.9838,49
60.0024,40