File: notebooks/data/xrd_data/ML_20220721_19_SJD_4_LaB6-4min.uxd
; (content of file Y:\Sam\Apurva-07-20-2022\puck1\ML_20220721_19_SJD_0_LaB6-4min.raw)
_FILEVERSION = 3
_SAMPLE = ML_20220721_19_SJD_0_LaB6-4min
_+SAMPLE =
_SITE = USA
_USER = Administrator
_GONIOMETER_CODE = 20
; Goniometer : D8 theta/2theta, stage : Unknown
_ATTACHMENTS_CODE = 0
_GONIOMETER_RADIUS = 200.5
_FIXED_DIVSLIT = 0.6
_FIXED_SAMPLESLIT = 0
_SOLLER_SLITS = 2
_FIXED_DETSLIT = 9.55
_MONOCHROMATOR = 0
; Incident beam monochromator : None
_SOLLER_SLITS_2 = N
_THIN_FILM = N
_BETA_FILTER = Y
_FIXED_ANTISLIT = 5.89
_ANALYZER_CODE = 0
; Received beam analyzer : None
_DATEMEASURED = "25-Jul-2022 15:17:43"
_WL_UNIT = A
_WL1 = 1.5406
_WL2 = 1.54439
_WL3 = 1.39222
_WLRATIO = 0.5
_ANODE = Cu
_V4_INF_CREATOR = XRDWizard
_V4_INF_CREATOR_VERSION = V2.9.0.22
_V4_INF_WIZARD_VERSION = V2.9.0.22
_V4_INF_WIZARD_ADDINS = V2.9.0.22
_V4_INF_WIZARD_DOCTYPE = XRD
_V4_INF_OSUSER = McQueenLab
_V4_INF_USER = Administrator
_V4_INF_SITE = USA
_V4_INF_SAMPLEID = ML_20220721_19_SJD_0_LaB6-4min

; Data for range 1
_DRIVE = COUPLED
_STEPTIME = 11.28
_STEPSIZE = 0.0185756
_STEPMODE = C
_START = 5
_THETA = 2.5
_2THETA = 5
_KHI = 0
_PHI = 0
_X = 0
_Y = 0
_Z = 0
_DETECTOR = 5
; Detector type : Unknown
_DETECTORSLIT = unkn
_AUX1 = 0
_AUX2 = 0
_AUX3 = 0
_TIMESTARTED = 15
_TEMP_RATE = -1
_TEMP_DELAY = -1
_KV = 40
_MA = 40
_RANGE_WL = 1.5406
_3DPLANE = 0
_V4_ADDITIONALDETECTOR = 257
_V4_PSD2THETA = 3.3674
_V4_PSDCHANNEL1 = 0
_V4_PSDAPERTURE = 12.68
_V4_PSDTYPE = 5
_V4_PSDFIXED = 0
_V4_COUNTERS_MASK = 4096
_V4_DRIVES_MASK = 0
_V4_ENCODERS_MASK = 0
_2THETACOUNTS = 1
; 2THETA  PSD
   5.0000        256
   5.1858        278
   5.3715        243
   5.5573        216
   5.7430        213
   5.9288        220
   6.1145        207
   6.3003        198
   6.4860        197
   6.6718        194
   6.8576        190
   7.0433        165
   7.2291        155
   7.4148        160
   7.6006        170
   7.7863        183
   7.9721        187
   8.1579        203
   8.3436        186
   8.5294        192
   8.7151        207
   8.9009        179
   9.0866        227
   9.2724        220
   9.4581        230
   9.6439        207
   9.8297        241
  10.0154        283
  10.2012        247
  10.3869        235
  10.5727        261
  10.7584        240
  10.9442        203
  11.1299        259
  11.3157        217
  11.5015        258
  11.6872        235
  11.8730        236
  12.0587        241
  12.2445        221
  12.4302        223
  12.6160        226
  12.8018        258
  12.9875        246
  13.1733        219
  13.3590        209
  13.5448        184
  13.7305        212
  13.9163        180
  14.1020        198
  14.2878        183
  14.4736        155
  14.6593        184
  14.8451        147
  15.0308        155
  15.2166        171
  15.4023        160
  15.5881        161
  15.7738        147
  15.9596        178
  16.1454        167
  16.3311        169
  16.5169        151
  16.7026        164
  16.8884        167
  17.0741        158
  17.2599        185
  17.4457        151
  17.6314        184
  17.8172        153
  18.0029        162
  18.1887        171
  18.3744        167
  18.5602        184
  18.7459        182
  18.9317        191
  19.1175        209
  19.3032        163
  19.4890        170
  19.6747        183
  19.8605        163
  20.0462        187
  20.2320        158
  20.4177        167
  20.6035        192
  20.7893        177
  20.9750        197
  21.1608        257
  21.3465        524
  21.5323        201
  21.7180        193
  21.9038        195
  22.0896        157
  22.2753        179
  22.4611        194
  22.6468        191
  22.8326        189
  23.0183        218
  23.2041        196
  23.3898        188
  23.5756        177
  23.7614        222
  23.9471        200
  24.1329        193
  24.3186        239
  24.5044        203
  24.6901        231
  24.8759        188
  25.0616        219
  25.2474        184
  25.4332        189
  25.6189        178
  25.8047        222
  25.9904        213
  26.1762        188
  26.3619        190
  26.5477        198
  26.7335        191
  26.9192        203
  27.1050        210
  27.2907        230
  27.4765        190
  27.6622        180
  27.8480        190
  28.0337        188
  28.2195        177
  28.4053        181
  28.5910        183
  28.7768        167
  28.9625        163
  29.1483        163
  29.3340        147
  29.5198        165
  29.7055        146
  29.8913        182
  30.0771        168
  30.2628        190
  30.4486        256
  30.6343        142
  30.8201        140
  31.0058        144
  31.1916        148
  31.3774        153
  31.5631        137
  31.7489        152
  31.9346        153
  32.1204        128
  32.3061        116
  32.4919        140
  32.6776        115
  32.8634        138
  33.0492        127
  33.2349        137
  33.4207        102
  33.6064        121
  33.7922        120
  33.9779        109
  34.1637        123
  34.3494        121
  34.5352        112
  34.7210        121
  34.9067        120
  35.0925        105
  35.2782         95
  35.4640        113
  35.6497         90
  35.8355         98
  36.0213        102
  36.2070        106
  36.3928         97
  36.5785         98
  36.7643         73
  36.9500         88
  37.1358         82
  37.3215        112
  37.5073        118
  37.6931        101
  37.8788        102
  38.0646         82
  38.2503         95
  38.4361         87
  38.6218         92
  38.8076         90
  38.9933         81
  39.1791         83
  39.3649         97
  39.5506         89
  39.7364         80
  39.9221         75
  40.1079         77
  40.2936         79
  40.4794         82
  40.6652         71
  40.8509         86
  41.0367         79
  41.2224         73
  41.4082         83
  41.5939         77
  41.7797         76
  41.9654         62
  42.1512         75
  42.3370         73
  42.5227         82
  42.7085         65
  42.8942         75
  43.0800         64
  43.2657         91
  43.4515         97
  43.6372        103
  43.8230         91
  44.0088         80
  44.1945         70
  44.3803         72
  44.5660         84
  44.7518         77
  44.9375         78
  45.1233         70
  45.3091         70
  45.4948         68
  45.6806         68
  45.8663         88
  46.0521         63
  46.2378         67
  46.4236         77
  46.6093         77
  46.7951         64
  46.9809         63
  47.1666         54
  47.3524         58
  47.5381         68
  47.7239         75
  47.9096         55
  48.0954         72
  48.2811         63
  48.4669         65
  48.6527         74
  48.8384         57
  49.0242         78
  49.2099         54
  49.3957         49
  49.5814         70
  49.7672         62
  49.9530         58
  50.1387         66
  50.3245         68
  50.5102         53
  50.6960         62
  50.8817         58
  51.0675         69
  51.2532         42
  51.4390         67
  51.6248         59
  51.8105         67
  51.9963         67
  52.1820         61
  52.3678         69
  52.5535         65
  52.7393         61
  52.9250         66
  53.1108         66
  53.2966         49
  53.4823         50
  53.6681         59
  53.8538         75
  54.0396         79
  54.2253         70
  54.4111         62
  54.5969         71
  54.7826         64
  54.9684         46
  55.1541         48
  55.3399         52
  55.5256         57
  55.7114         54
  55.8971         62
  56.0829         43
  56.2687         62
  56.4544         61
  56.6402         54
  56.8259         65
  57.0117         60
  57.1974         60
  57.3832         59
  57.5689         54
  57.7547         60
  57.9405         64
  58.1262         54
  58.3120         54
  58.4977         62
  58.6835         59
  58.8692         44
  59.0550         64
  59.2408         59
  59.4265         71
  59.6123         62
  59.7980         43
  59.9838         48
  60.0024         61