File: notebooks/data/xrd_data/ML_20220720_12_SJD_4_LaB6-1min.csv
;,2THETA,
5.0000,102
5.1858,103
5.3715,84
5.5573,77
5.7430,73
5.9288,83
6.1145,74
6.3003,59
6.4860,77
6.6718,77
6.8576,58
7.0433,66
7.2291,65
7.4148,76
7.6006,48
7.7863,62
7.9721,48
8.1579,66
8.3436,77
8.5294,71
8.7151,69
8.9009,74
9.0866,70
9.2724,86
9.4581,90
9.6439,76
9.8297,80
10.0154,84
10.2012,94
10.3869,93
10.5727,75
10.7584,88
10.9442,84
11.1299,102
11.3157,77
11.5015,98
11.6872,75
11.8730,80
12.0587,82
12.2445,78
12.4302,81
12.6160,89
12.8018,64
12.9875,74
13.1733,80
13.3590,92
13.5448,81
13.7305,70
13.9163,63
14.1020,71
14.2878,76
14.4736,60
14.6593,53
14.8451,50
15.0308,55
15.2166,48
15.4023,66
15.5881,68
15.7738,61
15.9596,60
16.1454,66
16.3311,59
16.5169,62
16.7026,51
16.8884,52
17.0741,73
17.2599,53
17.4457,69
17.6314,62
17.8172,73
18.0029,67
18.1887,68
18.3744,50
18.5602,68
18.7459,60
18.9317,64
19.1175,74
19.3032,52
19.4890,67
19.6747,49
19.8605,72
20.0462,74
20.2320,66
20.4177,69
20.6035,63
20.7893,63
20.9750,74
21.1608,100
21.3465,189
21.5323,65
21.7180,92
21.9038,74
22.0896,77
22.2753,78
22.4611,67
22.6468,51
22.8326,84
23.0183,57
23.2041,79
23.3898,75
23.5756,78
23.7614,67
23.9471,73
24.1329,61
24.3186,78
24.5044,58
24.6901,60
24.8759,52
25.0616,70
25.2474,55
25.4332,70
25.6189,80
25.8047,74
25.9904,75
26.1762,69
26.3619,78
26.5477,74
26.7335,77
26.9192,78
27.1050,65
27.2907,69
27.4765,66
27.6622,68
27.8480,55
28.0337,76
28.2195,58
28.4053,68
28.5910,67
28.7768,54
28.9625,53
29.1483,64
29.3340,59
29.5198,55
29.7055,71
29.8913,51
30.0771,58
30.2628,73
30.4486,80
30.6343,59
30.8201,65
31.0058,53
31.1916,45
31.3774,52
31.5631,52
31.7489,54
31.9346,62
32.1204,54
32.3061,57
32.4919,60
32.6776,48
32.8634,46
33.0492,50
33.2349,35
33.4207,39
33.6064,47
33.7922,40
33.9779,43
34.1637,34
34.3494,44
34.5352,43
34.7210,44
34.9067,48
35.0925,41
35.2782,34
35.4640,47
35.6497,36
35.8355,41
36.0213,28
36.2070,32
36.3928,36
36.5785,35
36.7643,32
36.9500,25
37.1358,32
37.3215,37
37.5073,48
37.6931,33
37.8788,26
38.0646,28
38.2503,33
38.4361,33
38.6218,29
38.8076,36
38.9933,24
39.1791,30
39.3649,21
39.5506,23
39.7364,27
39.9221,34
40.1079,31
40.2936,31
40.4794,27
40.6652,29
40.8509,27
41.0367,30
41.2224,24
41.4082,33
41.5939,24
41.7797,32
41.9654,29
42.1512,27
42.3370,23
42.5227,21
42.7085,20
42.8942,22
43.0800,28
43.2657,28
43.4515,37
43.6372,43
43.8230,28
44.0088,25
44.1945,31
44.3803,25
44.5660,28
44.7518,30
44.9375,20
45.1233,19
45.3091,26
45.4948,31
45.6806,21
45.8663,20
46.0521,23
46.2378,23
46.4236,30
46.6093,19
46.7951,26
46.9809,24
47.1666,18
47.3524,25
47.5381,16
47.7239,24
47.9096,18
48.0954,22
48.2811,27
48.4669,18
48.6527,16
48.8384,25
49.0242,25
49.2099,21
49.3957,18
49.5814,20
49.7672,24
49.9530,21
50.1387,21
50.3245,25
50.5102,21
50.6960,23
50.8817,20
51.0675,19
51.2532,23
51.4390,25
51.6248,32
51.8105,26
51.9963,31
52.1820,21
52.3678,26
52.5535,18
52.7393,22
52.9250,23
53.1108,22
53.2966,21
53.4823,20
53.6681,24
53.8538,18
54.0396,26
54.2253,23
54.4111,18
54.5969,24
54.7826,29
54.9684,19
55.1541,15
55.3399,17
55.5256,23
55.7114,15
55.8971,24
56.0829,14
56.2687,22
56.4544,19
56.6402,13
56.8259,23
57.0117,18
57.1974,18
57.3832,35
57.5689,19
57.7547,19
57.9405,20
58.1262,17
58.3120,20
58.4977,16
58.6835,14
58.8692,18
59.0550,22
59.2408,16
59.4265,22
59.6123,20
59.7980,19
59.9838,21
60.0024,23