File: notebooks/data/xrd_data/ML_20220718_43_SJD_4_LaB6-1min.csv
;,2THETA,
5.0000,105
5.1858,100
5.3715,96
5.5573,83
5.7430,99
5.9288,66
6.1145,81
6.3003,67
6.4860,58
6.6718,72
6.8576,55
7.0433,66
7.2291,62
7.4148,58
7.6006,59
7.7863,65
7.9721,83
8.1579,74
8.3436,66
8.5294,79
8.7151,70
8.9009,73
9.0866,82
9.2724,83
9.4581,72
9.6439,83
9.8297,67
10.0154,85
10.2012,79
10.3869,94
10.5727,108
10.7584,101
10.9442,85
11.1299,86
11.3157,66
11.5015,93
11.6872,83
11.8730,83
12.0587,75
12.2445,73
12.4302,73
12.6160,97
12.8018,83
12.9875,77
13.1733,63
13.3590,70
13.5448,72
13.7305,79
13.9163,71
14.1020,63
14.2878,81
14.4736,70
14.6593,67
14.8451,78
15.0308,58
15.2166,67
15.4023,49
15.5881,54
15.7738,52
15.9596,56
16.1454,59
16.3311,51
16.5169,59
16.7026,62
16.8884,64
17.0741,54
17.2599,52
17.4457,56
17.6314,70
17.8172,63
18.0029,56
18.1887,56
18.3744,70
18.5602,72
18.7459,71
18.9317,64
19.1175,53
19.3032,62
19.4890,49
19.6747,74
19.8605,66
20.0462,62
20.2320,68
20.4177,79
20.6035,62
20.7893,79
20.9750,71
21.1608,87
21.3465,187
21.5323,76
21.7180,75
21.9038,73
22.0896,61
22.2753,73
22.4611,77
22.6468,66
22.8326,68
23.0183,77
23.2041,62
23.3898,75
23.5756,78
23.7614,77
23.9471,72
24.1329,77
24.3186,76
24.5044,78
24.6901,68
24.8759,67
25.0616,75
25.2474,83
25.4332,68
25.6189,71
25.8047,75
25.9904,70
26.1762,66
26.3619,73
26.5477,62
26.7335,74
26.9192,83
27.1050,86
27.2907,92
27.4765,61
27.6622,55
27.8480,58
28.0337,71
28.2195,72
28.4053,64
28.5910,54
28.7768,66
28.9625,59
29.1483,58
29.3340,56
29.5198,75
29.7055,45
29.8913,60
30.0771,57
30.2628,76
30.4486,84
30.6343,54
30.8201,58
31.0058,53
31.1916,57
31.3774,53
31.5631,46
31.7489,49
31.9346,46
32.1204,49
32.3061,43
32.4919,42
32.6776,50
32.8634,45
33.0492,46
33.2349,49
33.4207,49
33.6064,41
33.7922,46
33.9779,38
34.1637,37
34.3494,40
34.5352,56
34.7210,53
34.9067,55
35.0925,34
35.2782,34
35.4640,40
35.6497,41
35.8355,37
36.0213,34
36.2070,30
36.3928,41
36.5785,42
36.7643,35
36.9500,25
37.1358,43
37.3215,34
37.5073,43
37.6931,28
37.8788,34
38.0646,41
38.2503,27
38.4361,34
38.6218,25
38.8076,25
38.9933,32
39.1791,30
39.3649,24
39.5506,25
39.7364,25
39.9221,30
40.1079,28
40.2936,31
40.4794,22
40.6652,34
40.8509,26
41.0367,28
41.2224,25
41.4082,33
41.5939,21
41.7797,31
41.9654,26
42.1512,30
42.3370,24
42.5227,29
42.7085,23
42.8942,37
43.0800,24
43.2657,33
43.4515,41
43.6372,36
43.8230,38
44.0088,32
44.1945,34
44.3803,26
44.5660,27
44.7518,28
44.9375,29
45.1233,30
45.3091,24
45.4948,24
45.6806,22
45.8663,12
46.0521,23
46.2378,35
46.4236,22
46.6093,33
46.7951,21
46.9809,23
47.1666,19
47.3524,19
47.5381,30
47.7239,23
47.9096,30
48.0954,19
48.2811,23
48.4669,23
48.6527,26
48.8384,24
49.0242,32
49.2099,30
49.3957,22
49.5814,22
49.7672,27
49.9530,16
50.1387,31
50.3245,22
50.5102,21
50.6960,28
50.8817,21
51.0675,21
51.2532,20
51.4390,26
51.6248,24
51.8105,25
51.9963,31
52.1820,23
52.3678,19
52.5535,16
52.7393,24
52.9250,24
53.1108,24
53.2966,20
53.4823,9
53.6681,28
53.8538,28
54.0396,33
54.2253,26
54.4111,24
54.5969,20
54.7826,14
54.9684,27
55.1541,16
55.3399,22
55.5256,19
55.7114,17
55.8971,20
56.0829,25
56.2687,13
56.4544,24
56.6402,35
56.8259,21
57.0117,17
57.1974,20
57.3832,27
57.5689,23
57.7547,18
57.9405,21
58.1262,15
58.3120,15
58.4977,21
58.6835,23
58.8692,23
59.0550,16
59.2408,32
59.4265,17
59.6123,18
59.7980,17
59.9838,16
60.0024,16