File: notebooks/data/xrd_data/ML_20220718_54_SJD_4_LaB6-1min.uxd
; (content of file Y:\Sam\Apurva-07-20-2022\puck4\ML_20220718_54_SJD_4_LaB6-1min.raw)
_FILEVERSION = 3
_SAMPLE = ML_20220718_54_SJD_4_LaB6-1min
_+SAMPLE =
_SITE = USA
_USER = Administrator
_GONIOMETER_CODE = 20
; Goniometer : D8 theta/2theta, stage : Unknown
_ATTACHMENTS_CODE = 0
_GONIOMETER_RADIUS = 200.5
_FIXED_DIVSLIT = 0.6
_FIXED_SAMPLESLIT = 0
_SOLLER_SLITS = 2
_FIXED_DETSLIT = 9.55
_MONOCHROMATOR = 0
; Incident beam monochromator : None
_SOLLER_SLITS_2 = N
_THIN_FILM = N
_BETA_FILTER = Y
_FIXED_ANTISLIT = 5.89
_ANALYZER_CODE = 0
; Received beam analyzer : None
_DATEMEASURED = "26-Jul-2022 10:56:51"
_WL_UNIT = A
_WL1 = 1.5406
_WL2 = 1.54439
_WL3 = 1.39222
_WLRATIO = 0.5
_ANODE = Cu
_V4_INF_CREATOR = XRDWizard
_V4_INF_CREATOR_VERSION = V2.9.0.22
_V4_INF_WIZARD_VERSION = V2.9.0.22
_V4_INF_WIZARD_ADDINS = V2.9.0.22
_V4_INF_WIZARD_DOCTYPE = XRD
_V4_INF_OSUSER = McQueenLab
_V4_INF_USER = Administrator
_V4_INF_SITE = USA
_V4_INF_SAMPLEID = ML_20220718_54_SJD_4_LaB6-1min

; Data for range 1
_DRIVE = COUPLED
_STEPTIME = 4.23
_STEPSIZE = 0.0185756
_STEPMODE = C
_START = 5
_THETA = 2.5
_2THETA = 5
_KHI = 0
_PHI = 0
_X = 0
_Y = 0
_Z = 0
_DETECTOR = 5
; Detector type : Unknown
_DETECTORSLIT = unkn
_AUX1 = 0
_AUX2 = 0
_AUX3 = 0
_TIMESTARTED = 15
_TEMP_RATE = -1
_TEMP_DELAY = -1
_KV = 40
_MA = 40
_RANGE_WL = 1.5406
_3DPLANE = 0
_V4_ADDITIONALDETECTOR = 257
_V4_PSD2THETA = 3.3736
_V4_PSDCHANNEL1 = 0
_V4_PSDAPERTURE = 12.68
_V4_PSDTYPE = 5
_V4_PSDFIXED = 0
_V4_COUNTERS_MASK = 4096
_V4_DRIVES_MASK = 0
_V4_ENCODERS_MASK = 0
_2THETACOUNTS = 1
; 2THETA  PSD
   5.0000         87
   5.1858         95
   5.3715         78
   5.5573         75
   5.7430         71
   5.9288         64
   6.1145         65
   6.3003         58
   6.4860         56
   6.6718         63
   6.8576         59
   7.0433         46
   7.2291         47
   7.4148         56
   7.6006         60
   7.7863         70
   7.9721         62
   8.1579         74
   8.3436         66
   8.5294         73
   8.7151         60
   8.9009         71
   9.0866         63
   9.2724         84
   9.4581         63
   9.6439         88
   9.8297         84
  10.0154         84
  10.2012        104
  10.3869         98
  10.5727         77
  10.7584         84
  10.9442         82
  11.1299         69
  11.3157         93
  11.5015         85
  11.6872         87
  11.8730         69
  12.0587         89
  12.2445         85
  12.4302         79
  12.6160         74
  12.8018         64
  12.9875         76
  13.1733         79
  13.3590         70
  13.5448         66
  13.7305         67
  13.9163         68
  14.1020         65
  14.2878         59
  14.4736         55
  14.6593         66
  14.8451         64
  15.0308         45
  15.2166         54
  15.4023         56
  15.5881         65
  15.7738         57
  15.9596         73
  16.1454         84
  16.3311         56
  16.5169         61
  16.7026         51
  16.8884         57
  17.0741         59
  17.2599         53
  17.4457         50
  17.6314         54
  17.8172         54
  18.0029         47
  18.1887         65
  18.3744         66
  18.5602         49
  18.7459         59
  18.9317         58
  19.1175         57
  19.3032         52
  19.4890         63
  19.6747         66
  19.8605         77
  20.0462         59
  20.2320         75
  20.4177         68
  20.6035         57
  20.7893         68
  20.9750         67
  21.1608         98
  21.3465        162
  21.5323         60
  21.7180         73
  21.9038         81
  22.0896         82
  22.2753         70
  22.4611         55
  22.6468         55
  22.8326         77
  23.0183         68
  23.2041         69
  23.3898         70
  23.5756         81
  23.7614         66
  23.9471         66
  24.1329         68
  24.3186         90
  24.5044         72
  24.6901         82
  24.8759         74
  25.0616         77
  25.2474         76
  25.4332         55
  25.6189         69
  25.8047         76
  25.9904         63
  26.1762         63
  26.3619         78
  26.5477         74
  26.7335         73
  26.9192         86
  27.1050         70
  27.2907         72
  27.4765         68
  27.6622         58
  27.8480         51
  28.0337         56
  28.2195         66
  28.4053         47
  28.5910         64
  28.7768         69
  28.9625         53
  29.1483         49
  29.3340         58
  29.5198         46
  29.7055         69
  29.8913         57
  30.0771         47
  30.2628         63
  30.4486         93
  30.6343         56
  30.8201         43
  31.0058         66
  31.1916         49
  31.3774         58
  31.5631         54
  31.7489         52
  31.9346         57
  32.1204         44
  32.3061         55
  32.4919         47
  32.6776         51
  32.8634         62
  33.0492         44
  33.2349         49
  33.4207         33
  33.6064         38
  33.7922         42
  33.9779         45
  34.1637         40
  34.3494         55
  34.5352         48
  34.7210         63
  34.9067         45
  35.0925         36
  35.2782         32
  35.4640         39
  35.6497         39
  35.8355         36
  36.0213         50
  36.2070         34
  36.3928         39
  36.5785         45
  36.7643         36
  36.9500         35
  37.1358         31
  37.3215         28
  37.5073         39
  37.6931         32
  37.8788         30
  38.0646         33
  38.2503         49
  38.4361         28
  38.6218         30
  38.8076         28
  38.9933         32
  39.1791         36
  39.3649         25
  39.5506         29
  39.7364         30
  39.9221         32
  40.1079         30
  40.2936         31
  40.4794         18
  40.6652         38
  40.8509         24
  41.0367         23
  41.2224         35
  41.4082         29
  41.5939         32
  41.7797         34
  41.9654         21
  42.1512         19
  42.3370         23
  42.5227         29
  42.7085         22
  42.8942         30
  43.0800         22
  43.2657         37
  43.4515         33
  43.6372         35
  43.8230         30
  44.0088         28
  44.1945         22
  44.3803         31
  44.5660         32
  44.7518         33
  44.9375         26
  45.1233         28
  45.3091         33
  45.4948         21
  45.6806         21
  45.8663         29
  46.0521         25
  46.2378         24
  46.4236         22
  46.6093         30
  46.7951         31
  46.9809         22
  47.1666         20
  47.3524         28
  47.5381         17
  47.7239         25
  47.9096         26
  48.0954         24
  48.2811         26
  48.4669         25
  48.6527         25
  48.8384         26
  49.0242         29
  49.2099         29
  49.3957         32
  49.5814         15
  49.7672         28
  49.9530         21
  50.1387         36
  50.3245         28
  50.5102         21
  50.6960         25
  50.8817         16
  51.0675         33
  51.2532         25
  51.4390         18
  51.6248         22
  51.8105         15
  51.9963         26
  52.1820         17
  52.3678         24
  52.5535         12
  52.7393         21
  52.9250         19
  53.1108         30
  53.2966         23
  53.4823         18
  53.6681         29
  53.8538         19
  54.0396         34
  54.2253         21
  54.4111         24
  54.5969         22
  54.7826         24
  54.9684         25
  55.1541         24
  55.3399         23
  55.5256         10
  55.7114         14
  55.8971         18
  56.0829         15
  56.2687         27
  56.4544         22
  56.6402         20
  56.8259         25
  57.0117         17
  57.1974         25
  57.3832         15
  57.5689         27
  57.7547         25
  57.9405         28
  58.1262         17
  58.3120         20
  58.4977         14
  58.6835         28
  58.8692         24
  59.0550         24
  59.2408         16
  59.4265         18
  59.6123         28
  59.7980         21
  59.9838         22
  60.0024         21