File: notebooks/data/xrd_data/ML_20220718_42_SJD_4_LaB6-4min.csv
;,2THETA,
5.0000,275
5.1858,244
5.3715,250
5.5573,244
5.7430,193
5.9288,204
6.1145,198
6.3003,181
6.4860,165
6.6718,159
6.8576,202
7.0433,146
7.2291,160
7.4148,169
7.6006,171
7.7863,203
7.9721,195
8.1579,219
8.3436,213
8.5294,220
8.7151,190
8.9009,202
9.0866,206
9.2724,225
9.4581,212
9.6439,222
9.8297,256
10.0154,234
10.2012,259
10.3869,243
10.5727,254
10.7584,243
10.9442,228
11.1299,232
11.3157,228
11.5015,216
11.6872,242
11.8730,225
12.0587,233
12.2445,230
12.4302,205
12.6160,196
12.8018,204
12.9875,206
13.1733,201
13.3590,194
13.5448,203
13.7305,211
13.9163,182
14.1020,183
14.2878,165
14.4736,164
14.6593,175
14.8451,151
15.0308,192
15.2166,160
15.4023,160
15.5881,149
15.7738,158
15.9596,156
16.1454,144
16.3311,169
16.5169,155
16.7026,151
16.8884,175
17.0741,177
17.2599,168
17.4457,145
17.6314,189
17.8172,171
18.0029,149
18.1887,155
18.3744,147
18.5602,162
18.7459,176
18.9317,172
19.1175,192
19.3032,160
19.4890,165
19.6747,170
19.8605,193
20.0462,171
20.2320,183
20.4177,200
20.6035,171
20.7893,169
20.9750,174
21.1608,221
21.3465,491
21.5323,186
21.7180,217
21.9038,203
22.0896,228
22.2753,197
22.4611,209
22.6468,180
22.8326,225
23.0183,218
23.2041,181
23.3898,211
23.5756,201
23.7614,202
23.9471,192
24.1329,214
24.3186,225
24.5044,208
24.6901,212
24.8759,189
25.0616,201
25.2474,207
25.4332,204
25.6189,183
25.8047,195
25.9904,180
26.1762,188
26.3619,193
26.5477,189
26.7335,206
26.9192,211
27.1050,192
27.2907,183
27.4765,183
27.6622,179
27.8480,179
28.0337,162
28.2195,161
28.4053,139
28.5910,139
28.7768,163
28.9625,160
29.1483,147
29.3340,142
29.5198,150
29.7055,139
29.8913,146
30.0771,144
30.2628,159
30.4486,247
30.6343,156
30.8201,140
31.0058,141
31.1916,153
31.3774,130
31.5631,136
31.7489,148
31.9346,145
32.1204,119
32.3061,122
32.4919,126
32.6776,124
32.8634,112
33.0492,106
33.2349,127
33.4207,119
33.6064,118
33.7922,125
33.9779,104
34.1637,111
34.3494,114
34.5352,135
34.7210,139
34.9067,109
35.0925,104
35.2782,87
35.4640,119
35.6497,118
35.8355,110
36.0213,96
36.2070,94
36.3928,124
36.5785,96
36.7643,83
36.9500,68
37.1358,98
37.3215,99
37.5073,121
37.6931,85
37.8788,82
38.0646,88
38.2503,74
38.4361,72
38.6218,99
38.8076,86
38.9933,93
39.1791,71
39.3649,77
39.5506,76
39.7364,82
39.9221,69
40.1079,71
40.2936,66
40.4794,81
40.6652,69
40.8509,77
41.0367,81
41.2224,65
41.4082,73
41.5939,75
41.7797,76
41.9654,83
42.1512,70
42.3370,87
42.5227,58
42.7085,74
42.8942,81
43.0800,79
43.2657,89
43.4515,95
43.6372,97
43.8230,77
44.0088,68
44.1945,68
44.3803,75
44.5660,67
44.7518,84
44.9375,65
45.1233,78
45.3091,70
45.4948,55
45.6806,74
45.8663,70
46.0521,81
46.2378,68
46.4236,64
46.6093,60
46.7951,82
46.9809,66
47.1666,70
47.3524,71
47.5381,71
47.7239,62
47.9096,65
48.0954,67
48.2811,65
48.4669,59
48.6527,61
48.8384,75
49.0242,61
49.2099,61
49.3957,65
49.5814,49
49.7672,64
49.9530,58
50.1387,82
50.3245,56
50.5102,70
50.6960,58
50.8817,58
51.0675,54
51.2532,80
51.4390,69
51.6248,63
51.8105,81
51.9963,54
52.1820,58
52.3678,50
52.5535,32
52.7393,51
52.9250,62
53.1108,61
53.2966,51
53.4823,56
53.6681,58
53.8538,51
54.0396,70
54.2253,54
54.4111,74
54.5969,47
54.7826,62
54.9684,56
55.1541,60
55.3399,55
55.5256,71
55.7114,55
55.8971,36
56.0829,58
56.2687,65
56.4544,59
56.6402,55
56.8259,57
57.0117,56
57.1974,55
57.3832,49
57.5689,53
57.7547,63
57.9405,53
58.1262,53
58.3120,52
58.4977,63
58.6835,63
58.8692,56
59.0550,51
59.2408,54
59.4265,53
59.6123,58
59.7980,60
59.9838,53
60.0024,59