File: notebooks/data/xrd_data/ML_20220720_29_SJD_4_LaB6-1min.uxd
; (content of file Y:\Sam\Apurva-07-20-2022\puck2\ML_20220720_29_SJD_0_LaB6-1min.raw)
_FILEVERSION = 3
_SAMPLE = ML_20220720_29_SJD_0_LaB6-1min
_+SAMPLE =
_SITE = USA
_USER = Administrator
_GONIOMETER_CODE = 20
; Goniometer : D8 theta/2theta, stage : Unknown
_ATTACHMENTS_CODE = 0
_GONIOMETER_RADIUS = 200.5
_FIXED_DIVSLIT = 0.6
_FIXED_SAMPLESLIT = 0
_SOLLER_SLITS = 2
_FIXED_DETSLIT = 9.55
_MONOCHROMATOR = 0
; Incident beam monochromator : None
_SOLLER_SLITS_2 = N
_THIN_FILM = N
_BETA_FILTER = Y
_FIXED_ANTISLIT = 5.89
_ANALYZER_CODE = 0
; Received beam analyzer : None
_DATEMEASURED = "25-Jul-2022 18:40:31"
_WL_UNIT = A
_WL1 = 1.5406
_WL2 = 1.54439
_WL3 = 1.39222
_WLRATIO = 0.5
_ANODE = Cu
_V4_INF_CREATOR = XRDWizard
_V4_INF_CREATOR_VERSION = V2.9.0.22
_V4_INF_WIZARD_VERSION = V2.9.0.22
_V4_INF_WIZARD_ADDINS = V2.9.0.22
_V4_INF_WIZARD_DOCTYPE = XRD
_V4_INF_OSUSER = McQueenLab
_V4_INF_USER = Administrator
_V4_INF_SITE = USA
_V4_INF_SAMPLEID = ML_20220720_29_SJD_0_LaB6-1min

; Data for range 1
_DRIVE = COUPLED
_STEPTIME = 4.23
_STEPSIZE = 0.0185756
_STEPMODE = C
_START = 5
_THETA = 2.5
_2THETA = 5
_KHI = 0
_PHI = 0
_X = 0
_Y = 0
_Z = 0
_DETECTOR = 5
; Detector type : Unknown
_DETECTORSLIT = unkn
_AUX1 = 0
_AUX2 = 0
_AUX3 = 0
_TIMESTARTED = 15
_TEMP_RATE = -1
_TEMP_DELAY = -1
_KV = 40
_MA = 40
_RANGE_WL = 1.5406
_3DPLANE = 0
_V4_ADDITIONALDETECTOR = 257
_V4_PSD2THETA = 3.4372
_V4_PSDCHANNEL1 = 0
_V4_PSDAPERTURE = 12.68
_V4_PSDTYPE = 5
_V4_PSDFIXED = 0
_V4_COUNTERS_MASK = 4096
_V4_DRIVES_MASK = 0
_V4_ENCODERS_MASK = 0
_2THETACOUNTS = 1
; 2THETA  PSD
   5.0000        104
   5.1858         79
   5.3715         94
   5.5573         88
   5.7430         71
   5.9288         65
   6.1145         67
   6.3003         80
   6.4860         67
   6.6718         57
   6.8576         57
   7.0433         67
   7.2291         55
   7.4148         52
   7.6006         63
   7.7863         69
   7.9721         67
   8.1579         78
   8.3436         58
   8.5294         86
   8.7151         70
   8.9009         78
   9.0866         81
   9.2724         90
   9.4581         71
   9.6439         85
   9.8297        101
  10.0154         77
  10.2012         91
  10.3869         85
  10.5727         75
  10.7584         94
  10.9442         77
  11.1299         86
  11.3157         87
  11.5015         74
  11.6872         74
  11.8730         83
  12.0587         81
  12.2445         76
  12.4302         77
  12.6160         70
  12.8018         88
  12.9875         93
  13.1733         58
  13.3590         87
  13.5448         74
  13.7305         72
  13.9163         68
  14.1020         71
  14.2878         65
  14.4736         59
  14.6593         60
  14.8451         63
  15.0308         57
  15.2166         61
  15.4023         76
  15.5881         66
  15.7738         47
  15.9596         57
  16.1454         48
  16.3311         61
  16.5169         54
  16.7026         53
  16.8884         65
  17.0741         51
  17.2599         74
  17.4457         65
  17.6314         46
  17.8172         62
  18.0029         56
  18.1887         63
  18.3744         78
  18.5602         63
  18.7459         51
  18.9317         67
  19.1175         48
  19.3032         64
  19.4890         62
  19.6747         78
  19.8605         61
  20.0462         76
  20.2320         73
  20.4177         75
  20.6035         59
  20.7893         62
  20.9750         64
  21.1608         79
  21.3465        194
  21.5323         88
  21.7180         67
  21.9038         64
  22.0896         84
  22.2753         69
  22.4611         61
  22.6468         88
  22.8326         79
  23.0183         61
  23.2041         64
  23.3898         71
  23.5756         86
  23.7614         69
  23.9471         79
  24.1329         85
  24.3186         68
  24.5044         73
  24.6901         77
  24.8759         71
  25.0616         89
  25.2474         76
  25.4332         74
  25.6189         76
  25.8047         75
  25.9904         70
  26.1762         70
  26.3619         57
  26.5477         57
  26.7335         63
  26.9192         59
  27.1050         80
  27.2907         78
  27.4765         62
  27.6622         69
  27.8480         56
  28.0337         48
  28.2195         61
  28.4053         51
  28.5910         57
  28.7768         56
  28.9625         59
  29.1483         69
  29.3340         56
  29.5198         44
  29.7055         46
  29.8913         48
  30.0771         48
  30.2628         62
  30.4486         93
  30.6343         52
  30.8201         60
  31.0058         61
  31.1916         40
  31.3774         60
  31.5631         59
  31.7489         49
  31.9346         72
  32.1204         44
  32.3061         40
  32.4919         57
  32.6776         49
  32.8634         41
  33.0492         46
  33.2349         46
  33.4207         46
  33.6064         42
  33.7922         46
  33.9779         39
  34.1637         40
  34.3494         44
  34.5352         46
  34.7210         59
  34.9067         38
  35.0925         29
  35.2782         44
  35.4640         36
  35.6497         37
  35.8355         28
  36.0213         32
  36.2070         40
  36.3928         34
  36.5785         29
  36.7643         37
  36.9500         30
  37.1358         38
  37.3215         42
  37.5073         39
  37.6931         30
  37.8788         24
  38.0646         33
  38.2503         41
  38.4361         34
  38.6218         33
  38.8076         28
  38.9933         38
  39.1791         22
  39.3649         25
  39.5506         28
  39.7364         23
  39.9221         38
  40.1079         30
  40.2936         22
  40.4794         32
  40.6652         38
  40.8509         25
  41.0367         25
  41.2224         26
  41.4082         27
  41.5939         22
  41.7797         22
  41.9654         24
  42.1512         36
  42.3370         33
  42.5227         33
  42.7085         27
  42.8942         31
  43.0800         30
  43.2657         35
  43.4515         40
  43.6372         34
  43.8230         23
  44.0088         29
  44.1945         31
  44.3803         20
  44.5660         39
  44.7518         30
  44.9375         30
  45.1233         21
  45.3091         28
  45.4948         20
  45.6806         23
  45.8663         29
  46.0521         27
  46.2378         11
  46.4236         37
  46.6093         17
  46.7951         22
  46.9809         28
  47.1666         25
  47.3524         29
  47.5381         26
  47.7239         23
  47.9096         19
  48.0954         21
  48.2811         27
  48.4669         29
  48.6527         20
  48.8384         19
  49.0242         33
  49.2099         29
  49.3957         19
  49.5814         22
  49.7672         22
  49.9530         20
  50.1387         22
  50.3245         20
  50.5102         23
  50.6960         23
  50.8817         25
  51.0675         31
  51.2532         21
  51.4390         23
  51.6248         24
  51.8105         22
  51.9963         24
  52.1820         21
  52.3678         25
  52.5535         20
  52.7393         25
  52.9250         25
  53.1108         16
  53.2966         25
  53.4823         16
  53.6681         15
  53.8538         20
  54.0396         22
  54.2253         17
  54.4111         29
  54.5969         20
  54.7826         19
  54.9684         26
  55.1541         21
  55.3399         23
  55.5256         14
  55.7114         19
  55.8971         22
  56.0829         19
  56.2687         27
  56.4544         19
  56.6402         30
  56.8259         17
  57.0117         26
  57.1974         25
  57.3832         22
  57.5689         24
  57.7547         21
  57.9405         17
  58.1262         19
  58.3120         18
  58.4977         16
  58.6835         20
  58.8692         20
  59.0550         20
  59.2408         23
  59.4265         17
  59.6123         23
  59.7980         15
  59.9838         22
  60.0024         19