File: notebooks/data/xrd_data/ML_20220718_6_SJD_4_LaB6-2min.csv
;,2THETA,
5.0000,130
5.1858,117
5.3715,109
5.5573,108
5.7430,87
5.9288,98
6.1145,91
6.3003,97
6.4860,79
6.6718,94
6.8576,70
7.0433,87
7.2291,77
7.4148,72
7.6006,94
7.7863,97
7.9721,90
8.1579,94
8.3436,117
8.5294,98
8.7151,121
8.9009,101
9.0866,97
9.2724,98
9.4581,119
9.6439,101
9.8297,125
10.0154,104
10.2012,121
10.3869,120
10.5727,117
10.7584,119
10.9442,127
11.1299,127
11.3157,121
11.5015,137
11.6872,121
11.8730,141
12.0587,116
12.2445,115
12.4302,110
12.6160,107
12.8018,91
12.9875,106
13.1733,89
13.3590,86
13.5448,97
13.7305,89
13.9163,96
14.1020,108
14.2878,98
14.4736,82
14.6593,88
14.8451,99
15.0308,92
15.2166,86
15.4023,70
15.5881,64
15.7738,81
15.9596,78
16.1454,77
16.3311,90
16.5169,96
16.7026,78
16.8884,84
17.0741,88
17.2599,99
17.4457,73
17.6314,84
17.8172,86
18.0029,82
18.1887,82
18.3744,80
18.5602,83
18.7459,87
18.9317,83
19.1175,78
19.3032,88
19.4890,78
19.6747,111
19.8605,84
20.0462,94
20.2320,100
20.4177,87
20.6035,94
20.7893,78
20.9750,97
21.1608,126
21.3465,250
21.5323,98
21.7180,117
21.9038,91
22.0896,90
22.2753,96
22.4611,79
22.6468,107
22.8326,84
23.0183,76
23.2041,99
23.3898,104
23.5756,110
23.7614,106
23.9471,108
24.1329,76
24.3186,111
24.5044,77
24.6901,95
24.8759,97
25.0616,95
25.2474,98
25.4332,86
25.6189,106
25.8047,91
25.9904,85
26.1762,110
26.3619,99
26.5477,93
26.7335,69
26.9192,92
27.1050,101
27.2907,109
27.4765,97
27.6622,87
27.8480,69
28.0337,83
28.2195,88
28.4053,97
28.5910,90
28.7768,73
28.9625,76
29.1483,96
29.3340,73
29.5198,77
29.7055,81
29.8913,82
30.0771,94
30.2628,83
30.4486,98
30.6343,78
30.8201,64
31.0058,76
31.1916,61
31.3774,77
31.5631,61
31.7489,70
31.9346,72
32.1204,73
32.3061,69
32.4919,68
32.6776,53
32.8634,66
33.0492,52
33.2349,65
33.4207,52
33.6064,57
33.7922,42
33.9779,68
34.1637,43
34.3494,54
34.5352,63
34.7210,77
34.9067,50
35.0925,58
35.2782,64
35.4640,47
35.6497,43
35.8355,39
36.0213,51
36.2070,50
36.3928,35
36.5785,40
36.7643,46
36.9500,49
37.1358,35
37.3215,37
37.5073,47
37.6931,40
37.8788,43
38.0646,53
38.2503,35
38.4361,43
38.6218,43
38.8076,52
38.9933,36
39.1791,36
39.3649,41
39.5506,43
39.7364,46
39.9221,33
40.1079,41
40.2936,51
40.4794,34
40.6652,39
40.8509,31
41.0367,42
41.2224,44
41.4082,40
41.5939,43
41.7797,36
41.9654,36
42.1512,35
42.3370,50
42.5227,40
42.7085,39
42.8942,38
43.0800,27
43.2657,34
43.4515,59
43.6372,53
43.8230,43
44.0088,32
44.1945,37
44.3803,44
44.5660,29
44.7518,29
44.9375,24
45.1233,33
45.3091,41
45.4948,40
45.6806,29
45.8663,27
46.0521,29
46.2378,31
46.4236,37
46.6093,34
46.7951,47
46.9809,26
47.1666,31
47.3524,33
47.5381,35
47.7239,28
47.9096,29
48.0954,32
48.2811,21
48.4669,25
48.6527,36
48.8384,30
49.0242,34
49.2099,35
49.3957,28
49.5814,36
49.7672,27
49.9530,23
50.1387,39
50.3245,30
50.5102,33
50.6960,25
50.8817,36
51.0675,21
51.2532,25
51.4390,43
51.6248,26
51.8105,37
51.9963,34
52.1820,26
52.3678,30
52.5535,30
52.7393,24
52.9250,31
53.1108,27
53.2966,31
53.4823,16
53.6681,36
53.8538,27
54.0396,40
54.2253,38
54.4111,26
54.5969,19
54.7826,28
54.9684,25
55.1541,31
55.3399,26
55.5256,25
55.7114,27
55.8971,21
56.0829,22
56.2687,22
56.4544,36
56.6402,23
56.8259,29
57.0117,29
57.1974,42
57.3832,33
57.5689,17
57.7547,30
57.9405,33
58.1262,28
58.3120,26
58.4977,35
58.6835,25
58.8692,24
59.0550,44
59.2408,29
59.4265,20
59.6123,27
59.7980,25
59.9838,32
60.0024,29