File: notebooks/data/xrd_data/ML_20220718_51_SJD_4_LaB6-2min.uxd
; (content of file Y:\Sam\Apurva-07-20-2022\puck4\ML_20220718_51_SJD_4_LaB6-2min.raw)
_FILEVERSION = 3
_SAMPLE = ML_20220718_51_SJD_4_LaB6-2min
_+SAMPLE =
_SITE = USA
_USER = Administrator
_GONIOMETER_CODE = 20
; Goniometer : D8 theta/2theta, stage : Unknown
_ATTACHMENTS_CODE = 0
_GONIOMETER_RADIUS = 200.5
_FIXED_DIVSLIT = 0.6
_FIXED_SAMPLESLIT = 0
_SOLLER_SLITS = 2
_FIXED_DETSLIT = 9.55
_MONOCHROMATOR = 0
; Incident beam monochromator : None
_SOLLER_SLITS_2 = N
_THIN_FILM = N
_BETA_FILTER = Y
_FIXED_ANTISLIT = 5.89
_ANALYZER_CODE = 0
; Received beam analyzer : None
_DATEMEASURED = "26-Jul-2022 12:30:02"
_WL_UNIT = A
_WL1 = 1.5406
_WL2 = 1.54439
_WL3 = 1.39222
_WLRATIO = 0.5
_ANODE = Cu
_V4_INF_CREATOR = XRDWizard
_V4_INF_CREATOR_VERSION = V2.9.0.22
_V4_INF_WIZARD_VERSION = V2.9.0.22
_V4_INF_WIZARD_ADDINS = V2.9.0.22
_V4_INF_WIZARD_DOCTYPE = XRD
_V4_INF_OSUSER = McQueenLab
_V4_INF_USER = Administrator
_V4_INF_SITE = USA
_V4_INF_SAMPLEID = ML_20220718_51_SJD_4_LaB6-2min

; Data for range 1
_DRIVE = COUPLED
_STEPTIME = 5.64
_STEPSIZE = 0.0185756
_STEPMODE = C
_START = 5
_THETA = 2.5
_2THETA = 5
_KHI = 0
_PHI = 0
_X = 0
_Y = 0
_Z = 0
_DETECTOR = 5
; Detector type : Unknown
_DETECTORSLIT = unkn
_AUX1 = 0
_AUX2 = 0
_AUX3 = 0
_TIMESTARTED = 15
_TEMP_RATE = -1
_TEMP_DELAY = -1
_KV = 40
_MA = 40
_RANGE_WL = 1.5406
_3DPLANE = 0
_V4_ADDITIONALDETECTOR = 257
_V4_PSD2THETA = 3.3734
_V4_PSDCHANNEL1 = 0
_V4_PSDAPERTURE = 12.68
_V4_PSDTYPE = 5
_V4_PSDFIXED = 0
_V4_COUNTERS_MASK = 4096
_V4_DRIVES_MASK = 0
_V4_ENCODERS_MASK = 0
_2THETACOUNTS = 1
; 2THETA  PSD
   5.0000        131
   5.1858        118
   5.3715        115
   5.5573        121
   5.7430        105
   5.9288         93
   6.1145         81
   6.3003         97
   6.4860         79
   6.6718         96
   6.8576         84
   7.0433         74
   7.2291         90
   7.4148         73
   7.6006         74
   7.7863         87
   7.9721         93
   8.1579         87
   8.3436         89
   8.5294         97
   8.7151         88
   8.9009        102
   9.0866        121
   9.2724        126
   9.4581         99
   9.6439        106
   9.8297        132
  10.0154         91
  10.2012        117
  10.3869        105
  10.5727        108
  10.7584        111
  10.9442         98
  11.1299        130
  11.3157        101
  11.5015        101
  11.6872         96
  11.8730        118
  12.0587        104
  12.2445        101
  12.4302        109
  12.6160        122
  12.8018         94
  12.9875        106
  13.1733         92
  13.3590         96
  13.5448         97
  13.7305         97
  13.9163         92
  14.1020         84
  14.2878         83
  14.4736        101
  14.6593         72
  14.8451         76
  15.0308         87
  15.2166         80
  15.4023         71
  15.5881         79
  15.7738         80
  15.9596         81
  16.1454         72
  16.3311         83
  16.5169         85
  16.7026         79
  16.8884         82
  17.0741         80
  17.2599         89
  17.4457         88
  17.6314         80
  17.8172         80
  18.0029         80
  18.1887         76
  18.3744         90
  18.5602         83
  18.7459         88
  18.9317         79
  19.1175         99
  19.3032         73
  19.4890         85
  19.6747         91
  19.8605         83
  20.0462         78
  20.2320         99
  20.4177        100
  20.6035        103
  20.7893         90
  20.9750        103
  21.1608        132
  21.3465        247
  21.5323        106
  21.7180        100
  21.9038         93
  22.0896        109
  22.2753        105
  22.4611        107
  22.6468         83
  22.8326         95
  23.0183         91
  23.2041         91
  23.3898         88
  23.5756        109
  23.7614        108
  23.9471        106
  24.1329         95
  24.3186        102
  24.5044        104
  24.6901        101
  24.8759        110
  25.0616        111
  25.2474        108
  25.4332         92
  25.6189         91
  25.8047         98
  25.9904         91
  26.1762         92
  26.3619         90
  26.5477        100
  26.7335        111
  26.9192         86
  27.1050         96
  27.2907        111
  27.4765         95
  27.6622         81
  27.8480         81
  28.0337         85
  28.2195         94
  28.4053         59
  28.5910         66
  28.7768         88
  28.9625         79
  29.1483         93
  29.3340         93
  29.5198         73
  29.7055         68
  29.8913         80
  30.0771         86
  30.2628         86
  30.4486        108
  30.6343         65
  30.8201         73
  31.0058         79
  31.1916         57
  31.3774         63
  31.5631         76
  31.7489         81
  31.9346         62
  32.1204         52
  32.3061         65
  32.4919         66
  32.6776         60
  32.8634         52
  33.0492         57
  33.2349         56
  33.4207         71
  33.6064         59
  33.7922         44
  33.9779         56
  34.1637         49
  34.3494         58
  34.5352         51
  34.7210         73
  34.9067         67
  35.0925         60
  35.2782         44
  35.4640         43
  35.6497         57
  35.8355         44
  36.0213         57
  36.2070         48
  36.3928         47
  36.5785         39
  36.7643         42
  36.9500         40
  37.1358         49
  37.3215         64
  37.5073         54
  37.6931         45
  37.8788         56
  38.0646         32
  38.2503         46
  38.4361         36
  38.6218         55
  38.8076         48
  38.9933         40
  39.1791         36
  39.3649         44
  39.5506         34
  39.7364         44
  39.9221         45
  40.1079         26
  40.2936         35
  40.4794         35
  40.6652         47
  40.8509         28
  41.0367         36
  41.2224         46
  41.4082         34
  41.5939         30
  41.7797         26
  41.9654         30
  42.1512         29
  42.3370         37
  42.5227         35
  42.7085         35
  42.8942         40
  43.0800         32
  43.2657         35
  43.4515         46
  43.6372         50
  43.8230         33
  44.0088         35
  44.1945         34
  44.3803         28
  44.5660         37
  44.7518         42
  44.9375         37
  45.1233         37
  45.3091         32
  45.4948         34
  45.6806         32
  45.8663         24
  46.0521         31
  46.2378         31
  46.4236         32
  46.6093         33
  46.7951         30
  46.9809         31
  47.1666         33
  47.3524         35
  47.5381         38
  47.7239         19
  47.9096         30
  48.0954         31
  48.2811         23
  48.4669         31
  48.6527         35
  48.8384         42
  49.0242         37
  49.2099         26
  49.3957         25
  49.5814         30
  49.7672         21
  49.9530         34
  50.1387         29
  50.3245         38
  50.5102         38
  50.6960         31
  50.8817         24
  51.0675         24
  51.2532         23
  51.4390         40
  51.6248         26
  51.8105         24
  51.9963         44
  52.1820         20
  52.3678         21
  52.5535         27
  52.7393         22
  52.9250         36
  53.1108         35
  53.2966         29
  53.4823         27
  53.6681         36
  53.8538         34
  54.0396         27
  54.2253         26
  54.4111         29
  54.5969         29
  54.7826         23
  54.9684         29
  55.1541         31
  55.3399         28
  55.5256         26
  55.7114         24
  55.8971         21
  56.0829         30
  56.2687         29
  56.4544         30
  56.6402         27
  56.8259         28
  57.0117         27
  57.1974         31
  57.3832         30
  57.5689         19
  57.7547         31
  57.9405         29
  58.1262         25
  58.3120         29
  58.4977         29
  58.6835         26
  58.8692         28
  59.0550         29
  59.2408         23
  59.4265         35
  59.6123         22
  59.7980         35
  59.9838         35
  60.0024         33