File: notebooks/data/xrd_data/ML_20220720_8_SJD_4_LaB6-4min.csv
;,2THETA,
5.0000,312
5.1858,250
5.3715,226
5.5573,229
5.7430,221
5.9288,192
6.1145,200
6.3003,186
6.4860,187
6.6718,175
6.8576,166
7.0433,154
7.2291,161
7.4148,158
7.6006,176
7.7863,184
7.9721,184
8.1579,205
8.3436,205
8.5294,204
8.7151,212
8.9009,205
9.0866,232
9.2724,236
9.4581,200
9.6439,225
9.8297,239
10.0154,254
10.2012,232
10.3869,247
10.5727,229
10.7584,229
10.9442,235
11.1299,243
11.3157,240
11.5015,240
11.6872,217
11.8730,245
12.0587,236
12.2445,243
12.4302,257
12.6160,224
12.8018,206
12.9875,200
13.1733,234
13.3590,224
13.5448,198
13.7305,202
13.9163,226
14.1020,203
14.2878,176
14.4736,164
14.6593,158
14.8451,195
15.0308,165
15.2166,162
15.4023,166
15.5881,174
15.7738,177
15.9596,143
16.1454,156
16.3311,173
16.5169,150
16.7026,161
16.8884,167
17.0741,189
17.2599,160
17.4457,137
17.6314,141
17.8172,188
18.0029,166
18.1887,152
18.3744,164
18.5602,160
18.7459,177
18.9317,161
19.1175,175
19.3032,163
19.4890,151
19.6747,204
19.8605,162
20.0462,177
20.2320,186
20.4177,177
20.6035,194
20.7893,183
20.9750,175
21.1608,222
21.3465,502
21.5323,210
21.7180,174
21.9038,199
22.0896,206
22.2753,199
22.4611,208
22.6468,195
22.8326,188
23.0183,210
23.2041,199
23.3898,223
23.5756,202
23.7614,176
23.9471,196
24.1329,226
24.3186,236
24.5044,186
24.6901,195
24.8759,215
25.0616,164
25.2474,204
25.4332,189
25.6189,184
25.8047,196
25.9904,200
26.1762,191
26.3619,195
26.5477,186
26.7335,202
26.9192,183
27.1050,200
27.2907,208
27.4765,203
27.6622,174
27.8480,174
28.0337,199
28.2195,207
28.4053,176
28.5910,161
28.7768,170
28.9625,153
29.1483,162
29.3340,171
29.5198,156
29.7055,169
29.8913,176
30.0771,172
30.2628,158
30.4486,228
30.6343,151
30.8201,146
31.0058,154
31.1916,143
31.3774,157
31.5631,137
31.7489,159
31.9346,138
32.1204,152
32.3061,112
32.4919,144
32.6776,128
32.8634,130
33.0492,140
33.2349,120
33.4207,91
33.6064,128
33.7922,120
33.9779,115
34.1637,109
34.3494,94
34.5352,128
34.7210,129
34.9067,114
35.0925,116
35.2782,97
35.4640,112
35.6497,98
35.8355,88
36.0213,101
36.2070,95
36.3928,94
36.5785,94
36.7643,85
36.9500,97
37.1358,110
37.3215,104
37.5073,115
37.6931,69
37.8788,86
38.0646,93
38.2503,99
38.4361,77
38.6218,88
38.8076,93
38.9933,97
39.1791,78
39.3649,92
39.5506,92
39.7364,66
39.9221,64
40.1079,73
40.2936,69
40.4794,74
40.6652,74
40.8509,79
41.0367,67
41.2224,74
41.4082,66
41.5939,65
41.7797,72
41.9654,65
42.1512,80
42.3370,68
42.5227,90
42.7085,88
42.8942,86
43.0800,83
43.2657,96
43.4515,84
43.6372,101
43.8230,70
44.0088,68
44.1945,67
44.3803,63
44.5660,72
44.7518,87
44.9375,79
45.1233,76
45.3091,64
45.4948,62
45.6806,72
45.8663,73
46.0521,68
46.2378,77
46.4236,71
46.6093,70
46.7951,52
46.9809,56
47.1666,66
47.3524,55
47.5381,67
47.7239,69
47.9096,56
48.0954,71
48.2811,66
48.4669,63
48.6527,54
48.8384,59
49.0242,86
49.2099,74
49.3957,58
49.5814,63
49.7672,58
49.9530,63
50.1387,62
50.3245,66
50.5102,66
50.6960,60
50.8817,65
51.0675,59
51.2532,69
51.4390,69
51.6248,54
51.8105,68
51.9963,69
52.1820,69
52.3678,53
52.5535,69
52.7393,54
52.9250,63
53.1108,65
53.2966,55
53.4823,50
53.6681,49
53.8538,72
54.0396,55
54.2253,57
54.4111,50
54.5969,54
54.7826,60
54.9684,55
55.1541,59
55.3399,60
55.5256,58
55.7114,49
55.8971,48
56.0829,55
56.2687,74
56.4544,73
56.6402,56
56.8259,47
57.0117,52
57.1974,58
57.3832,62
57.5689,56
57.7547,54
57.9405,56
58.1262,56
58.3120,63
58.4977,52
58.6835,48
58.8692,49
59.0550,48
59.2408,56
59.4265,68
59.6123,60
59.7980,59
59.9838,48
60.0024,59