File: notebooks/data/xrd_data/ML_20220720_36_SJD_4_LaB6-1min.uxd
; (content of file Y:\Sam\Apurva-07-20-2022\puck2\ML_20220720_36_SJD_0_LaB6-1min.raw)
_FILEVERSION = 3
_SAMPLE = ML_20220720_36_SJD_0_LaB6-1mi
_+SAMPLE =
_SITE = USA
_USER = Administrator
_GONIOMETER_CODE = 20
; Goniometer : D8 theta/2theta, stage : Unknown
_ATTACHMENTS_CODE = 0
_GONIOMETER_RADIUS = 200.5
_FIXED_DIVSLIT = 0.6
_FIXED_SAMPLESLIT = 0
_SOLLER_SLITS = 2
_FIXED_DETSLIT = 9.55
_MONOCHROMATOR = 0
; Incident beam monochromator : None
_SOLLER_SLITS_2 = N
_THIN_FILM = N
_BETA_FILTER = Y
_FIXED_ANTISLIT = 5.89
_ANALYZER_CODE = 0
; Received beam analyzer : None
_DATEMEASURED = "25-Jul-2022 18:53:38"
_WL_UNIT = A
_WL1 = 1.5406
_WL2 = 1.54439
_WL3 = 1.39222
_WLRATIO = 0.5
_ANODE = Cu
_V4_INF_CREATOR = XRDWizard
_V4_INF_CREATOR_VERSION = V2.9.0.22
_V4_INF_WIZARD_VERSION = V2.9.0.22
_V4_INF_WIZARD_ADDINS = V2.9.0.22
_V4_INF_WIZARD_DOCTYPE = XRD
_V4_INF_OSUSER = McQueenLab
_V4_INF_USER = Administrator
_V4_INF_SITE = USA
_V4_INF_SAMPLEID = ML_20220720_36_SJD_0_LaB6-1mi

; Data for range 1
_DRIVE = COUPLED
_STEPTIME = 4.23
_STEPSIZE = 0.0185756
_STEPMODE = C
_START = 5
_THETA = 2.5
_2THETA = 5
_KHI = 0
_PHI = 0
_X = 0
_Y = 0
_Z = 0
_DETECTOR = 5
; Detector type : Unknown
_DETECTORSLIT = unkn
_AUX1 = 0
_AUX2 = 0
_AUX3 = 0
_TIMESTARTED = 15
_TEMP_RATE = -1
_TEMP_DELAY = -1
_KV = 40
_MA = 40
_RANGE_WL = 1.5406
_3DPLANE = 0
_V4_ADDITIONALDETECTOR = 257
_V4_PSD2THETA = 3.4354
_V4_PSDCHANNEL1 = 0
_V4_PSDAPERTURE = 12.68
_V4_PSDTYPE = 5
_V4_PSDFIXED = 0
_V4_COUNTERS_MASK = 4096
_V4_DRIVES_MASK = 0
_V4_ENCODERS_MASK = 0
_2THETACOUNTS = 1
; 2THETA  PSD
   5.0000        106
   5.1858         86
   5.3715         98
   5.5573         83
   5.7430         89
   5.9288         84
   6.1145         67
   6.3003         76
   6.4860         58
   6.6718         73
   6.8576         66
   7.0433         67
   7.2291         66
   7.4148         57
   7.6006         54
   7.7863         60
   7.9721         67
   8.1579         79
   8.3436         70
   8.5294         73
   8.7151         80
   8.9009         72
   9.0866         76
   9.2724         90
   9.4581         79
   9.6439         87
   9.8297         84
  10.0154         79
  10.2012         93
  10.3869         82
  10.5727         91
  10.7584         88
  10.9442         74
  11.1299         95
  11.3157         91
  11.5015         91
  11.6872         79
  11.8730         86
  12.0587         85
  12.2445         69
  12.4302         87
  12.6160         69
  12.8018         69
  12.9875         77
  13.1733         66
  13.3590         78
  13.5448         55
  13.7305         70
  13.9163         70
  14.1020         76
  14.2878         78
  14.4736         59
  14.6593         64
  14.8451         61
  15.0308         64
  15.2166         69
  15.4023         67
  15.5881         52
  15.7738         79
  15.9596         59
  16.1454         45
  16.3311         48
  16.5169         64
  16.7026         62
  16.8884         62
  17.0741         69
  17.2599         57
  17.4457         46
  17.6314         63
  17.8172         55
  18.0029         56
  18.1887         52
  18.3744         66
  18.5602         65
  18.7459         62
  18.9317         63
  19.1175         59
  19.3032         61
  19.4890         65
  19.6747         67
  19.8605         70
  20.0462         63
  20.2320         64
  20.4177         59
  20.6035         72
  20.7893         77
  20.9750         72
  21.1608         82
  21.3465        163
  21.5323         80
  21.7180         86
  21.9038         83
  22.0896         79
  22.2753         74
  22.4611         73
  22.6468         87
  22.8326         65
  23.0183         79
  23.2041         77
  23.3898         78
  23.5756         72
  23.7614         86
  23.9471         78
  24.1329         87
  24.3186         78
  24.5044         88
  24.6901         83
  24.8759         77
  25.0616         83
  25.2474         72
  25.4332         63
  25.6189         70
  25.8047         68
  25.9904         73
  26.1762         78
  26.3619         65
  26.5477         66
  26.7335         72
  26.9192         60
  27.1050         68
  27.2907         75
  27.4765         79
  27.6622         80
  27.8480         78
  28.0337         72
  28.2195         55
  28.4053         60
  28.5910         58
  28.7768         54
  28.9625         62
  29.1483         61
  29.3340         46
  29.5198         55
  29.7055         56
  29.8913         48
  30.0771         73
  30.2628         58
  30.4486         82
  30.6343         49
  30.8201         46
  31.0058         54
  31.1916         48
  31.3774         64
  31.5631         54
  31.7489         48
  31.9346         46
  32.1204         42
  32.3061         41
  32.4919         59
  32.6776         47
  32.8634         65
  33.0492         42
  33.2349         35
  33.4207         43
  33.6064         44
  33.7922         45
  33.9779         42
  34.1637         36
  34.3494         40
  34.5352         51
  34.7210         48
  34.9067         46
  35.0925         47
  35.2782         44
  35.4640         43
  35.6497         31
  35.8355         30
  36.0213         33
  36.2070         24
  36.3928         37
  36.5785         31
  36.7643         36
  36.9500         36
  37.1358         38
  37.3215         41
  37.5073         52
  37.6931         32
  37.8788         20
  38.0646         32
  38.2503         30
  38.4361         30
  38.6218         36
  38.8076         42
  38.9933         35
  39.1791         27
  39.3649         33
  39.5506         35
  39.7364         31
  39.9221         24
  40.1079         32
  40.2936         39
  40.4794         27
  40.6652         29
  40.8509         29
  41.0367         33
  41.2224         30
  41.4082         21
  41.5939         30
  41.7797         31
  41.9654         26
  42.1512         29
  42.3370         28
  42.5227         35
  42.7085         32
  42.8942         39
  43.0800         32
  43.2657         48
  43.4515         32
  43.6372         37
  43.8230         23
  44.0088         29
  44.1945         24
  44.3803         35
  44.5660         28
  44.7518         24
  44.9375         26
  45.1233         32
  45.3091         24
  45.4948         26
  45.6806         27
  45.8663         27
  46.0521         23
  46.2378         25
  46.4236         33
  46.6093         20
  46.7951         32
  46.9809         32
  47.1666         13
  47.3524         14
  47.5381         15
  47.7239         24
  47.9096         23
  48.0954         19
  48.2811         19
  48.4669         21
  48.6527         24
  48.8384         27
  49.0242         28
  49.2099         21
  49.3957         27
  49.5814         22
  49.7672         21
  49.9530         30
  50.1387         23
  50.3245         21
  50.5102         17
  50.6960         21
  50.8817         21
  51.0675         24
  51.2532         21
  51.4390         22
  51.6248         24
  51.8105         26
  51.9963         26
  52.1820         24
  52.3678         23
  52.5535         28
  52.7393         24
  52.9250         23
  53.1108         21
  53.2966         26
  53.4823         22
  53.6681         19
  53.8538         24
  54.0396         18
  54.2253         23
  54.4111         26
  54.5969         18
  54.7826         17
  54.9684         20
  55.1541         24
  55.3399         15
  55.5256         15
  55.7114         18
  55.8971         13
  56.0829         20
  56.2687         19
  56.4544         16
  56.6402         23
  56.8259         21
  57.0117         18
  57.1974         13
  57.3832         20
  57.5689         23
  57.7547         24
  57.9405         15
  58.1262         21
  58.3120         25
  58.4977         26
  58.6835         12
  58.8692         19
  59.0550         20
  59.2408         25
  59.4265         23
  59.6123         27
  59.7980         24
  59.9838         25
  60.0024         24