File: notebooks/data/xrd_data/ML_20220718_45_SJD_4_LaB6-4min.csv
;,2THETA,
5.0000,252
5.1858,231
5.3715,230
5.5573,227
5.7430,224
5.9288,192
6.1145,186
6.3003,163
6.4860,177
6.6718,192
6.8576,192
7.0433,181
7.2291,148
7.4148,149
7.6006,179
7.7863,175
7.9721,184
8.1579,207
8.3436,170
8.5294,194
8.7151,217
8.9009,194
9.0866,240
9.2724,203
9.4581,241
9.6439,224
9.8297,248
10.0154,236
10.2012,235
10.3869,231
10.5727,246
10.7584,242
10.9442,194
11.1299,239
11.3157,248
11.5015,250
11.6872,250
11.8730,241
12.0587,250
12.2445,221
12.4302,234
12.6160,199
12.8018,189
12.9875,189
13.1733,174
13.3590,205
13.5448,200
13.7305,174
13.9163,182
14.1020,181
14.2878,159
14.4736,158
14.6593,186
14.8451,142
15.0308,180
15.2166,164
15.4023,165
15.5881,162
15.7738,175
15.9596,136
16.1454,157
16.3311,154
16.5169,159
16.7026,162
16.8884,148
17.0741,171
17.2599,168
17.4457,160
17.6314,183
17.8172,184
18.0029,191
18.1887,175
18.3744,174
18.5602,155
18.7459,145
18.9317,168
19.1175,181
19.3032,169
19.4890,141
19.6747,171
19.8605,188
20.0462,181
20.2320,176
20.4177,177
20.6035,190
20.7893,180
20.9750,187
21.1608,222
21.3465,459
21.5323,195
21.7180,179
21.9038,196
22.0896,168
22.2753,195
22.4611,187
22.6468,188
22.8326,207
23.0183,201
23.2041,211
23.3898,179
23.5756,227
23.7614,202
23.9471,211
24.1329,200
24.3186,207
24.5044,211
24.6901,190
24.8759,208
25.0616,186
25.2474,201
25.4332,174
25.6189,192
25.8047,189
25.9904,196
26.1762,228
26.3619,174
26.5477,181
26.7335,201
26.9192,216
27.1050,183
27.2907,194
27.4765,187
27.6622,191
27.8480,178
28.0337,175
28.2195,157
28.4053,167
28.5910,160
28.7768,153
28.9625,171
29.1483,135
29.3340,162
29.5198,159
29.7055,160
29.8913,147
30.0771,159
30.2628,158
30.4486,246
30.6343,141
30.8201,151
31.0058,143
31.1916,150
31.3774,139
31.5631,127
31.7489,108
31.9346,144
32.1204,124
32.3061,133
32.4919,148
32.6776,132
32.8634,134
33.0492,124
33.2349,116
33.4207,128
33.6064,129
33.7922,113
33.9779,125
34.1637,123
34.3494,102
34.5352,111
34.7210,156
34.9067,128
35.0925,97
35.2782,103
35.4640,130
35.6497,102
35.8355,99
36.0213,87
36.2070,87
36.3928,91
36.5785,83
36.7643,90
36.9500,82
37.1358,101
37.3215,96
37.5073,122
37.6931,105
37.8788,74
38.0646,84
38.2503,90
38.4361,81
38.6218,78
38.8076,71
38.9933,94
39.1791,82
39.3649,86
39.5506,86
39.7364,80
39.9221,75
40.1079,73
40.2936,80
40.4794,83
40.6652,98
40.8509,82
41.0367,81
41.2224,80
41.4082,70
41.5939,75
41.7797,81
41.9654,80
42.1512,81
42.3370,77
42.5227,68
42.7085,80
42.8942,77
43.0800,71
43.2657,91
43.4515,99
43.6372,103
43.8230,64
44.0088,78
44.1945,75
44.3803,70
44.5660,97
44.7518,66
44.9375,83
45.1233,65
45.3091,70
45.4948,64
45.6806,67
45.8663,68
46.0521,70
46.2378,69
46.4236,58
46.6093,73
46.7951,49
46.9809,61
47.1666,76
47.3524,68
47.5381,62
47.7239,72
47.9096,55
48.0954,58
48.2811,61
48.4669,70
48.6527,65
48.8384,71
49.0242,68
49.2099,77
49.3957,63
49.5814,63
49.7672,56
49.9530,65
50.1387,76
50.3245,68
50.5102,46
50.6960,44
50.8817,50
51.0675,60
51.2532,62
51.4390,67
51.6248,48
51.8105,62
51.9963,60
52.1820,53
52.3678,47
52.5535,57
52.7393,51
52.9250,59
53.1108,58
53.2966,55
53.4823,63
53.6681,59
53.8538,60
54.0396,71
54.2253,56
54.4111,60
54.5969,63
54.7826,44
54.9684,49
55.1541,44
55.3399,75
55.5256,57
55.7114,59
55.8971,56
56.0829,56
56.2687,63
56.4544,58
56.6402,65
56.8259,51
57.0117,45
57.1974,67
57.3832,60
57.5689,57
57.7547,59
57.9405,53
58.1262,49
58.3120,67
58.4977,67
58.6835,58
58.8692,55
59.0550,51
59.2408,52
59.4265,64
59.6123,59
59.7980,47
59.9838,57
60.0024,63