File: notebooks/data/xrd_data/ML_20220721_38_SJD_4_LaB6-4min.uxd
; (content of file Y:\Sam\Apurva-07-20-2022\puck1\ML_20220721_38_SJD_0_LaB6-4min.raw)
_FILEVERSION = 3
_SAMPLE = ML_20220721_38_SJD_0_LaB6-4min
_+SAMPLE =
_SITE = USA
_USER = Administrator
_GONIOMETER_CODE = 20
; Goniometer : D8 theta/2theta, stage : Unknown
_ATTACHMENTS_CODE = 0
_GONIOMETER_RADIUS = 200.5
_FIXED_DIVSLIT = 0.6
_FIXED_SAMPLESLIT = 0
_SOLLER_SLITS = 2
_FIXED_DETSLIT = 9.55
_MONOCHROMATOR = 0
; Incident beam monochromator : None
_SOLLER_SLITS_2 = N
_THIN_FILM = N
_BETA_FILTER = Y
_FIXED_ANTISLIT = 5.89
_ANALYZER_CODE = 0
; Received beam analyzer : None
_DATEMEASURED = "25-Jul-2022 16:42:49"
_WL_UNIT = A
_WL1 = 1.5406
_WL2 = 1.54439
_WL3 = 1.39222
_WLRATIO = 0.5
_ANODE = Cu
_V4_INF_CREATOR = XRDWizard
_V4_INF_CREATOR_VERSION = V2.9.0.22
_V4_INF_WIZARD_VERSION = V2.9.0.22
_V4_INF_WIZARD_ADDINS = V2.9.0.22
_V4_INF_WIZARD_DOCTYPE = XRD
_V4_INF_OSUSER = McQueenLab
_V4_INF_USER = Administrator
_V4_INF_SITE = USA
_V4_INF_SAMPLEID = ML_20220721_38_SJD_0_LaB6-4min

; Data for range 1
_DRIVE = COUPLED
_STEPTIME = 11.28
_STEPSIZE = 0.0185756
_STEPMODE = C
_START = 5
_THETA = 2.5
_2THETA = 5
_KHI = 0
_PHI = 0
_X = 0
_Y = 0
_Z = 0
_DETECTOR = 5
; Detector type : Unknown
_DETECTORSLIT = unkn
_AUX1 = 0
_AUX2 = 0
_AUX3 = 0
_TIMESTARTED = 15
_TEMP_RATE = -1
_TEMP_DELAY = -1
_KV = 40
_MA = 40
_RANGE_WL = 1.5406
_3DPLANE = 0
_V4_ADDITIONALDETECTOR = 257
_V4_PSD2THETA = 3.3878
_V4_PSDCHANNEL1 = 0
_V4_PSDAPERTURE = 12.68
_V4_PSDTYPE = 5
_V4_PSDFIXED = 0
_V4_COUNTERS_MASK = 4096
_V4_DRIVES_MASK = 0
_V4_ENCODERS_MASK = 0
_2THETACOUNTS = 1
; 2THETA  PSD
   5.0000        275
   5.1858        272
   5.3715        243
   5.5573        219
   5.7430        234
   5.9288        189
   6.1145        194
   6.3003        160
   6.4860        161
   6.6718        163
   6.8576        167
   7.0433        166
   7.2291        170
   7.4148        186
   7.6006        153
   7.7863        203
   7.9721        204
   8.1579        178
   8.3436        183
   8.5294        197
   8.7151        183
   8.9009        188
   9.0866        212
   9.2724        211
   9.4581        236
   9.6439        232
   9.8297        210
  10.0154        219
  10.2012        249
  10.3869        234
  10.5727        222
  10.7584        249
  10.9442        255
  11.1299        242
  11.3157        234
  11.5015        266
  11.6872        222
  11.8730        246
  12.0587        238
  12.2445        232
  12.4302        208
  12.6160        208
  12.8018        185
  12.9875        208
  13.1733        201
  13.3590        203
  13.5448        178
  13.7305        188
  13.9163        199
  14.1020        150
  14.2878        194
  14.4736        158
  14.6593        190
  14.8451        156
  15.0308        144
  15.2166        186
  15.4023        196
  15.5881        176
  15.7738        157
  15.9596        148
  16.1454        153
  16.3311        178
  16.5169        173
  16.7026        164
  16.8884        179
  17.0741        154
  17.2599        174
  17.4457        173
  17.6314        150
  17.8172        162
  18.0029        175
  18.1887        186
  18.3744        142
  18.5602        143
  18.7459        170
  18.9317        188
  19.1175        162
  19.3032        163
  19.4890        195
  19.6747        186
  19.8605        169
  20.0462        201
  20.2320        179
  20.4177        191
  20.6035        205
  20.7893        191
  20.9750        214
  21.1608        232
  21.3465        476
  21.5323        203
  21.7180        183
  21.9038        187
  22.0896        166
  22.2753        204
  22.4611        202
  22.6468        188
  22.8326        204
  23.0183        202
  23.2041        193
  23.3898        177
  23.5756        184
  23.7614        188
  23.9471        197
  24.1329        209
  24.3186        219
  24.5044        223
  24.6901        218
  24.8759        194
  25.0616        192
  25.2474        208
  25.4332        199
  25.6189        217
  25.8047        197
  25.9904        164
  26.1762        207
  26.3619        191
  26.5477        184
  26.7335        175
  26.9192        172
  27.1050        179
  27.2907        192
  27.4765        202
  27.6622        189
  27.8480        183
  28.0337        162
  28.2195        188
  28.4053        169
  28.5910        176
  28.7768        174
  28.9625        186
  29.1483        164
  29.3340        171
  29.5198        169
  29.7055        177
  29.8913        162
  30.0771        156
  30.2628        177
  30.4486        248
  30.6343        144
  30.8201        168
  31.0058        131
  31.1916        147
  31.3774        143
  31.5631        140
  31.7489        158
  31.9346        145
  32.1204        105
  32.3061        136
  32.4919        160
  32.6776        142
  32.8634        133
  33.0492        124
  33.2349        118
  33.4207        101
  33.6064        124
  33.7922        127
  33.9779        115
  34.1637        134
  34.3494        119
  34.5352        128
  34.7210        138
  34.9067        133
  35.0925        107
  35.2782        101
  35.4640        118
  35.6497        110
  35.8355        110
  36.0213        100
  36.2070        110
  36.3928        113
  36.5785        101
  36.7643         86
  36.9500         78
  37.1358         94
  37.3215        109
  37.5073         88
  37.6931         90
  37.8788         79
  38.0646        109
  38.2503        103
  38.4361         77
  38.6218         80
  38.8076         82
  38.9933         94
  39.1791         75
  39.3649         81
  39.5506         74
  39.7364         64
  39.9221         72
  40.1079         67
  40.2936         89
  40.4794         81
  40.6652         78
  40.8509         78
  41.0367         92
  41.2224         66
  41.4082         91
  41.5939         67
  41.7797         65
  41.9654         84
  42.1512         81
  42.3370         95
  42.5227         78
  42.7085         71
  42.8942         77
  43.0800         75
  43.2657         92
  43.4515         80
  43.6372        100
  43.8230         78
  44.0088         72
  44.1945         59
  44.3803         71
  44.5660         73
  44.7518         79
  44.9375         83
  45.1233         65
  45.3091         83
  45.4948         80
  45.6806         75
  45.8663         73
  46.0521         59
  46.2378         66
  46.4236         72
  46.6093         73
  46.7951         60
  46.9809         65
  47.1666         68
  47.3524         65
  47.5381         67
  47.7239         61
  47.9096         72
  48.0954         59
  48.2811         50
  48.4669         62
  48.6527         63
  48.8384         62
  49.0242         77
  49.2099         58
  49.3957         67
  49.5814         69
  49.7672         63
  49.9530         61
  50.1387         66
  50.3245         61
  50.5102         54
  50.6960         64
  50.8817         69
  51.0675         82
  51.2532         57
  51.4390         68
  51.6248         45
  51.8105         47
  51.9963         76
  52.1820         69
  52.3678         56
  52.5535         52
  52.7393         57
  52.9250         67
  53.1108         56
  53.2966         58
  53.4823         65
  53.6681         52
  53.8538         54
  54.0396         76
  54.2253         45
  54.4111         68
  54.5969         57
  54.7826         61
  54.9684         66
  55.1541         73
  55.3399         64
  55.5256         56
  55.7114         69
  55.8971         72
  56.0829         61
  56.2687         62
  56.4544         67
  56.6402         66
  56.8259         58
  57.0117         55
  57.1974         50
  57.3832         61
  57.5689         61
  57.7547         54
  57.9405         52
  58.1262         64
  58.3120         48
  58.4977         53
  58.6835         52
  58.8692         53
  59.0550         55
  59.2408         50
  59.4265         50
  59.6123         54
  59.7980         54
  59.9838         54
  60.0024         57