File: notebooks/data/xrd_data/ML_20220718_39_SJD_4_LaB6-2min.uxd
; (content of file Y:\Sam\Apurva-07-20-2022\puck4\ML_20220718_39_SJD_0_LaB6-2min.raw)
_FILEVERSION = 3
_SAMPLE = ML_20220718_39_SJD_0_LaB6-2min
_+SAMPLE =
_SITE = USA
_USER = Administrator
_GONIOMETER_CODE = 20
; Goniometer : D8 theta/2theta, stage : Unknown
_ATTACHMENTS_CODE = 0
_GONIOMETER_RADIUS = 200.5
_FIXED_DIVSLIT = 0.6
_FIXED_SAMPLESLIT = 0
_SOLLER_SLITS = 2
_FIXED_DETSLIT = 9.55
_MONOCHROMATOR = 0
; Incident beam monochromator : None
_SOLLER_SLITS_2 = N
_THIN_FILM = N
_BETA_FILTER = Y
_FIXED_ANTISLIT = 5.89
_ANALYZER_CODE = 0
; Received beam analyzer : None
_DATEMEASURED = "26-Jul-2022 08:52:05"
_WL_UNIT = A
_WL1 = 1.5406
_WL2 = 1.54439
_WL3 = 1.39222
_WLRATIO = 0.5
_ANODE = Cu
_V4_INF_CREATOR = XRDWizard
_V4_INF_CREATOR_VERSION = V2.9.0.22
_V4_INF_WIZARD_VERSION = V2.9.0.22
_V4_INF_WIZARD_ADDINS = V2.9.0.22
_V4_INF_WIZARD_DOCTYPE = XRD
_V4_INF_OSUSER = McQueenLab
_V4_INF_USER = Administrator
_V4_INF_SITE = USA
_V4_INF_SAMPLEID = ML_20220718_39_SJD_0_LaB6-2min

; Data for range 1
_DRIVE = COUPLED
_STEPTIME = 5.64
_STEPSIZE = 0.0185756
_STEPMODE = C
_START = 5
_THETA = 2.5
_2THETA = 5
_KHI = 0
_PHI = 0
_X = 0
_Y = 0
_Z = 0
_DETECTOR = 5
; Detector type : Unknown
_DETECTORSLIT = unkn
_AUX1 = 0
_AUX2 = 0
_AUX3 = 0
_TIMESTARTED = 16
_TEMP_RATE = -1
_TEMP_DELAY = -1
_KV = 40
_MA = 40
_RANGE_WL = 1.5406
_3DPLANE = 0
_V4_ADDITIONALDETECTOR = 257
_V4_PSD2THETA = 3.3714
_V4_PSDCHANNEL1 = 0
_V4_PSDAPERTURE = 12.68
_V4_PSDTYPE = 5
_V4_PSDFIXED = 0
_V4_COUNTERS_MASK = 4096
_V4_DRIVES_MASK = 0
_V4_ENCODERS_MASK = 0
_2THETACOUNTS = 1
; 2THETA  PSD
   5.0000        124
   5.1858        141
   5.3715        128
   5.5573        123
   5.7430        123
   5.9288        102
   6.1145         94
   6.3003        100
   6.4860         92
   6.6718         80
   6.8576         79
   7.0433         76
   7.2291         77
   7.4148         81
   7.6006         78
   7.7863         76
   7.9721         93
   8.1579         78
   8.3436         94
   8.5294         87
   8.7151        101
   8.9009         98
   9.0866         87
   9.2724        112
   9.4581        119
   9.6439        132
   9.8297        111
  10.0154        105
  10.2012        120
  10.3869        132
  10.5727        114
  10.7584        134
  10.9442        129
  11.1299        143
  11.3157        106
  11.5015        118
  11.6872        116
  11.8730        128
  12.0587        107
  12.2445        100
  12.4302        133
  12.6160        116
  12.8018        102
  12.9875        113
  13.1733        109
  13.3590         96
  13.5448        105
  13.7305         83
  13.9163        104
  14.1020         89
  14.2878         91
  14.4736         85
  14.6593         68
  14.8451         87
  15.0308         87
  15.2166         90
  15.4023         94
  15.5881         82
  15.7738         90
  15.9596         90
  16.1454         81
  16.3311         75
  16.5169         84
  16.7026         87
  16.8884         82
  17.0741         75
  17.2599         84
  17.4457         80
  17.6314         69
  17.8172         87
  18.0029         74
  18.1887         65
  18.3744         95
  18.5602         99
  18.7459         76
  18.9317         85
  19.1175         79
  19.3032         88
  19.4890         84
  19.6747         77
  19.8605         92
  20.0462         86
  20.2320         86
  20.4177         75
  20.6035         78
  20.7893         92
  20.9750        108
  21.1608        116
  21.3465        241
  21.5323         84
  21.7180        110
  21.9038         88
  22.0896        113
  22.2753         97
  22.4611         92
  22.6468         92
  22.8326         88
  23.0183         92
  23.2041         95
  23.3898         91
  23.5756         95
  23.7614         87
  23.9471        111
  24.1329        102
  24.3186        107
  24.5044        102
  24.6901         91
  24.8759         85
  25.0616        116
  25.2474        102
  25.4332         86
  25.6189        117
  25.8047         83
  25.9904         99
  26.1762         85
  26.3619        103
  26.5477        115
  26.7335         77
  26.9192         88
  27.1050         85
  27.2907         75
  27.4765         80
  27.6622         78
  27.8480         98
  28.0337         72
  28.2195         85
  28.4053         72
  28.5910         95
  28.7768         88
  28.9625         77
  29.1483         76
  29.3340         92
  29.5198         85
  29.7055         83
  29.8913         76
  30.0771         85
  30.2628         78
  30.4486        117
  30.6343         77
  30.8201         71
  31.0058         61
  31.1916         61
  31.3774         67
  31.5631         58
  31.7489         67
  31.9346         64
  32.1204         65
  32.3061         69
  32.4919         90
  32.6776         55
  32.8634         67
  33.0492         62
  33.2349         52
  33.4207         58
  33.6064         54
  33.7922         69
  33.9779         57
  34.1637         60
  34.3494         46
  34.5352         65
  34.7210         74
  34.9067         64
  35.0925         60
  35.2782         51
  35.4640         47
  35.6497         41
  35.8355         50
  36.0213         47
  36.2070         43
  36.3928         39
  36.5785         43
  36.7643         40
  36.9500         35
  37.1358         37
  37.3215         51
  37.5073         61
  37.6931         35
  37.8788         45
  38.0646         41
  38.2503         37
  38.4361         49
  38.6218         41
  38.8076         34
  38.9933         41
  39.1791         33
  39.3649         36
  39.5506         39
  39.7364         40
  39.9221         29
  40.1079         32
  40.2936         36
  40.4794         28
  40.6652         37
  40.8509         37
  41.0367         52
  41.2224         43
  41.4082         32
  41.5939         34
  41.7797         28
  41.9654         44
  42.1512         49
  42.3370         27
  42.5227         39
  42.7085         35
  42.8942         40
  43.0800         27
  43.2657         42
  43.4515         44
  43.6372         44
  43.8230         37
  44.0088         36
  44.1945         40
  44.3803         44
  44.5660         42
  44.7518         36
  44.9375         36
  45.1233         34
  45.3091         37
  45.4948         31
  45.6806         34
  45.8663         21
  46.0521         21
  46.2378         40
  46.4236         36
  46.6093         28
  46.7951         21
  46.9809         40
  47.1666         38
  47.3524         25
  47.5381         37
  47.7239         36
  47.9096         36
  48.0954         27
  48.2811         36
  48.4669         25
  48.6527         31
  48.8384         27
  49.0242         37
  49.2099         44
  49.3957         35
  49.5814         37
  49.7672         26
  49.9530         21
  50.1387         29
  50.3245         22
  50.5102         32
  50.6960         22
  50.8817         34
  51.0675         29
  51.2532         29
  51.4390         43
  51.6248         20
  51.8105         31
  51.9963         25
  52.1820         27
  52.3678         27
  52.5535         31
  52.7393         37
  52.9250         30
  53.1108         23
  53.2966         22
  53.4823         25
  53.6681         33
  53.8538         31
  54.0396         24
  54.2253         37
  54.4111         29
  54.5969         25
  54.7826         35
  54.9684         28
  55.1541         24
  55.3399         24
  55.5256         26
  55.7114         26
  55.8971         20
  56.0829         29
  56.2687         30
  56.4544         25
  56.6402         24
  56.8259         15
  57.0117         31
  57.1974         29
  57.3832         33
  57.5689         33
  57.7547         31
  57.9405         27
  58.1262         30
  58.3120         33
  58.4977         28
  58.6835         22
  58.8692         18
  59.0550         27
  59.2408         32
  59.4265         31
  59.6123         28
  59.7980         20
  59.9838         24
  60.0024         24