File: notebooks/data/xrd_data/ML_20220718_53_SJD_4_LaB6-4min.uxd
; (content of file Y:\Sam\Apurva-07-20-2022\puck4\ML_20220718_53_SJD_4_LaB6-4min.raw)
_FILEVERSION = 3
_SAMPLE = ML_20220718_53_SJD_4_LaB6-4min
_+SAMPLE =
_SITE = USA
_USER = Administrator
_GONIOMETER_CODE = 20
; Goniometer : D8 theta/2theta, stage : Unknown
_ATTACHMENTS_CODE = 0
_GONIOMETER_RADIUS = 200.5
_FIXED_DIVSLIT = 0.6
_FIXED_SAMPLESLIT = 0
_SOLLER_SLITS = 2
_FIXED_DETSLIT = 9.55
_MONOCHROMATOR = 0
; Incident beam monochromator : None
_SOLLER_SLITS_2 = N
_THIN_FILM = N
_BETA_FILTER = Y
_FIXED_ANTISLIT = 5.89
_ANALYZER_CODE = 0
; Received beam analyzer : None
_DATEMEASURED = "26-Jul-2022 14:14:13"
_WL_UNIT = A
_WL1 = 1.5406
_WL2 = 1.54439
_WL3 = 1.39222
_WLRATIO = 0.5
_ANODE = Cu
_V4_INF_CREATOR = XRDWizard
_V4_INF_CREATOR_VERSION = V2.9.0.22
_V4_INF_WIZARD_VERSION = V2.9.0.22
_V4_INF_WIZARD_ADDINS = V2.9.0.22
_V4_INF_WIZARD_DOCTYPE = XRD
_V4_INF_OSUSER = McQueenLab
_V4_INF_USER = Administrator
_V4_INF_SITE = USA
_V4_INF_SAMPLEID = ML_20220718_53_SJD_4_LaB6-4min

; Data for range 1
_DRIVE = COUPLED
_STEPTIME = 11.28
_STEPSIZE = 0.0185756
_STEPMODE = C
_START = 5
_THETA = 2.5
_2THETA = 5
_KHI = 0
_PHI = 0
_X = 0
_Y = 0
_Z = 0
_DETECTOR = 5
; Detector type : Unknown
_DETECTORSLIT = unkn
_AUX1 = 0
_AUX2 = 0
_AUX3 = 0
_TIMESTARTED = 15
_TEMP_RATE = -1
_TEMP_DELAY = -1
_KV = 40
_MA = 40
_RANGE_WL = 1.5406
_3DPLANE = 0
_V4_ADDITIONALDETECTOR = 257
_V4_PSD2THETA = 3.3902
_V4_PSDCHANNEL1 = 0
_V4_PSDAPERTURE = 12.68
_V4_PSDTYPE = 5
_V4_PSDFIXED = 0
_V4_COUNTERS_MASK = 4096
_V4_DRIVES_MASK = 0
_V4_ENCODERS_MASK = 0
_2THETACOUNTS = 1
; 2THETA  PSD
   5.0000        239
   5.1858        246
   5.3715        230
   5.5573        200
   5.7430        215
   5.9288        196
   6.1145        202
   6.3003        172
   6.4860        177
   6.6718        186
   6.8576        175
   7.0433        162
   7.2291        170
   7.4148        165
   7.6006        142
   7.7863        185
   7.9721        196
   8.1579        182
   8.3436        211
   8.5294        205
   8.7151        229
   8.9009        237
   9.0866        253
   9.2724        205
   9.4581        208
   9.6439        227
   9.8297        222
  10.0154        236
  10.2012        245
  10.3869        265
  10.5727        258
  10.7584        233
  10.9442        234
  11.1299        236
  11.3157        229
  11.5015        235
  11.6872        227
  11.8730        247
  12.0587        206
  12.2445        223
  12.4302        202
  12.6160        219
  12.8018        226
  12.9875        222
  13.1733        200
  13.3590        238
  13.5448        218
  13.7305        196
  13.9163        183
  14.1020        182
  14.2878        186
  14.4736        186
  14.6593        185
  14.8451        138
  15.0308        156
  15.2166        177
  15.4023        174
  15.5881        179
  15.7738        151
  15.9596        160
  16.1454        172
  16.3311        150
  16.5169        158
  16.7026        155
  16.8884        163
  17.0741        165
  17.2599        142
  17.4457        151
  17.6314        165
  17.8172        174
  18.0029        163
  18.1887        181
  18.3744        165
  18.5602        146
  18.7459        166
  18.9317        159
  19.1175        163
  19.3032        182
  19.4890        170
  19.6747        147
  19.8605        179
  20.0462        187
  20.2320        182
  20.4177        169
  20.6035        187
  20.7893        192
  20.9750        234
  21.1608        219
  21.3465        511
  21.5323        204
  21.7180        186
  21.9038        201
  22.0896        219
  22.2753        205
  22.4611        184
  22.6468        180
  22.8326        228
  23.0183        213
  23.2041        182
  23.3898        182
  23.5756        222
  23.7614        209
  23.9471        208
  24.1329        204
  24.3186        240
  24.5044        197
  24.6901        216
  24.8759        184
  25.0616        172
  25.2474        194
  25.4332        204
  25.6189        207
  25.8047        198
  25.9904        192
  26.1762        176
  26.3619        161
  26.5477        180
  26.7335        183
  26.9192        184
  27.1050        218
  27.2907        232
  27.4765        172
  27.6622        184
  27.8480        196
  28.0337        184
  28.2195        197
  28.4053        188
  28.5910        166
  28.7768        186
  28.9625        166
  29.1483        170
  29.3340        188
  29.5198        138
  29.7055        166
  29.8913        144
  30.0771        159
  30.2628        204
  30.4486        240
  30.6343        145
  30.8201        161
  31.0058        140
  31.1916        158
  31.3774        133
  31.5631        150
  31.7489        135
  31.9346        143
  32.1204        113
  32.3061        156
  32.4919        129
  32.6776        128
  32.8634        132
  33.0492        129
  33.2349        112
  33.4207        111
  33.6064        107
  33.7922        116
  33.9779        109
  34.1637        106
  34.3494        108
  34.5352        102
  34.7210        163
  34.9067        102
  35.0925         94
  35.2782        101
  35.4640        106
  35.6497         95
  35.8355         97
  36.0213         95
  36.2070        102
  36.3928         90
  36.5785         92
  36.7643        103
  36.9500         86
  37.1358         80
  37.3215        110
  37.5073        114
  37.6931         85
  37.8788         89
  38.0646         88
  38.2503         97
  38.4361         80
  38.6218         82
  38.8076         86
  38.9933         84
  39.1791         82
  39.3649         84
  39.5506         94
  39.7364         91
  39.9221         78
  40.1079         77
  40.2936        102
  40.4794         84
  40.6652         66
  40.8509         86
  41.0367         69
  41.2224         79
  41.4082         80
  41.5939         77
  41.7797         76
  41.9654         86
  42.1512         89
  42.3370         72
  42.5227         89
  42.7085         68
  42.8942         79
  43.0800         85
  43.2657         86
  43.4515         92
  43.6372         97
  43.8230         71
  44.0088         63
  44.1945         70
  44.3803         75
  44.5660         86
  44.7518         67
  44.9375         69
  45.1233         68
  45.3091         59
  45.4948         75
  45.6806         74
  45.8663         62
  46.0521         68
  46.2378         79
  46.4236         62
  46.6093         66
  46.7951         64
  46.9809         61
  47.1666         63
  47.3524         42
  47.5381         64
  47.7239         55
  47.9096         50
  48.0954         62
  48.2811         69
  48.4669         61
  48.6527         77
  48.8384         70
  49.0242         73
  49.2099         75
  49.3957         68
  49.5814         78
  49.7672         54
  49.9530         70
  50.1387         63
  50.3245         71
  50.5102         57
  50.6960         56
  50.8817         61
  51.0675         66
  51.2532         61
  51.4390         71
  51.6248         72
  51.8105         69
  51.9963         64
  52.1820         45
  52.3678         60
  52.5535         45
  52.7393         59
  52.9250         55
  53.1108         60
  53.2966         66
  53.4823         58
  53.6681         59
  53.8538         59
  54.0396         77
  54.2253         67
  54.4111         66
  54.5969         59
  54.7826         51
  54.9684         63
  55.1541         60
  55.3399         36
  55.5256         60
  55.7114         40
  55.8971         52
  56.0829         71
  56.2687         68
  56.4544         65
  56.6402         61
  56.8259         50
  57.0117         66
  57.1974         48
  57.3832         63
  57.5689         58
  57.7547         71
  57.9405         50
  58.1262         52
  58.3120         56
  58.4977         63
  58.6835         72
  58.8692         60
  59.0550         51
  59.2408         56
  59.4265         58
  59.6123         55
  59.7980         56
  59.9838         58
  60.0024         38