File: notebooks/data/xrd_data/ML_20220718_28_SJD_4_LaB6-2min.csv
;,2THETA,
5.0000,133
5.1858,132
5.3715,116
5.5573,127
5.7430,83
5.9288,124
6.1145,81
6.3003,98
6.4860,99
6.6718,85
6.8576,80
7.0433,75
7.2291,67
7.4148,89
7.6006,89
7.7863,84
7.9721,91
8.1579,98
8.3436,111
8.5294,101
8.7151,105
8.9009,98
9.0866,104
9.2724,97
9.4581,116
9.6439,90
9.8297,112
10.0154,125
10.2012,132
10.3869,101
10.5727,125
10.7584,116
10.9442,107
11.1299,103
11.3157,120
11.5015,114
11.6872,112
11.8730,109
12.0587,104
12.2445,102
12.4302,98
12.6160,119
12.8018,110
12.9875,102
13.1733,122
13.3590,119
13.5448,79
13.7305,100
13.9163,92
14.1020,93
14.2878,92
14.4736,92
14.6593,98
14.8451,78
15.0308,77
15.2166,80
15.4023,93
15.5881,70
15.7738,85
15.9596,90
16.1454,73
16.3311,86
16.5169,90
16.7026,96
16.8884,71
17.0741,90
17.2599,86
17.4457,71
17.6314,79
17.8172,71
18.0029,69
18.1887,73
18.3744,76
18.5602,86
18.7459,87
18.9317,85
19.1175,85
19.3032,99
19.4890,89
19.6747,83
19.8605,86
20.0462,98
20.2320,90
20.4177,80
20.6035,80
20.7893,109
20.9750,91
21.1608,116
21.3465,238
21.5323,99
21.7180,91
21.9038,107
22.0896,119
22.2753,107
22.4611,105
22.6468,84
22.8326,106
23.0183,112
23.2041,111
23.3898,93
23.5756,99
23.7614,101
23.9471,96
24.1329,102
24.3186,134
24.5044,114
24.6901,91
24.8759,115
25.0616,103
25.2474,90
25.4332,83
25.6189,93
25.8047,88
25.9904,92
26.1762,80
26.3619,99
26.5477,78
26.7335,78
26.9192,96
27.1050,94
27.2907,93
27.4765,97
27.6622,99
27.8480,99
28.0337,93
28.2195,74
28.4053,78
28.5910,69
28.7768,79
28.9625,88
29.1483,95
29.3340,101
29.5198,87
29.7055,63
29.8913,70
30.0771,78
30.2628,71
30.4486,114
30.6343,52
30.8201,61
31.0058,87
31.1916,78
31.3774,85
31.5631,78
31.7489,68
31.9346,51
32.1204,57
32.3061,81
32.4919,101
32.6776,64
32.8634,71
33.0492,63
33.2349,58
33.4207,70
33.6064,63
33.7922,51
33.9779,65
34.1637,49
34.3494,66
34.5352,64
34.7210,75
34.9067,55
35.0925,49
35.2782,54
35.4640,56
35.6497,46
35.8355,50
36.0213,48
36.2070,55
36.3928,39
36.5785,49
36.7643,45
36.9500,43
37.1358,38
37.3215,43
37.5073,54
37.6931,43
37.8788,38
38.0646,36
38.2503,44
38.4361,47
38.6218,35
38.8076,35
38.9933,49
39.1791,39
39.3649,35
39.5506,34
39.7364,46
39.9221,26
40.1079,40
40.2936,43
40.4794,43
40.6652,42
40.8509,52
41.0367,43
41.2224,33
41.4082,35
41.5939,36
41.7797,33
41.9654,42
42.1512,47
42.3370,38
42.5227,49
42.7085,28
42.8942,40
43.0800,39
43.2657,50
43.4515,47
43.6372,47
43.8230,36
44.0088,41
44.1945,38
44.3803,42
44.5660,41
44.7518,37
44.9375,32
45.1233,28
45.3091,37
45.4948,42
45.6806,36
45.8663,39
46.0521,25
46.2378,24
46.4236,33
46.6093,33
46.7951,37
46.9809,29
47.1666,34
47.3524,27
47.5381,26
47.7239,26
47.9096,22
48.0954,37
48.2811,24
48.4669,34
48.6527,34
48.8384,33
49.0242,34
49.2099,34
49.3957,27
49.5814,29
49.7672,35
49.9530,35
50.1387,31
50.3245,35
50.5102,28
50.6960,36
50.8817,31
51.0675,20
51.2532,36
51.4390,35
51.6248,33
51.8105,44
51.9963,34
52.1820,29
52.3678,28
52.5535,30
52.7393,32
52.9250,25
53.1108,34
53.2966,27
53.4823,32
53.6681,24
53.8538,29
54.0396,29
54.2253,27
54.4111,28
54.5969,24
54.7826,37
54.9684,23
55.1541,31
55.3399,33
55.5256,31
55.7114,33
55.8971,32
56.0829,24
56.2687,30
56.4544,28
56.6402,35
56.8259,30
57.0117,26
57.1974,34
57.3832,22
57.5689,23
57.7547,31
57.9405,19
58.1262,33
58.3120,24
58.4977,29
58.6835,30
58.8692,28
59.0550,26
59.2408,33
59.4265,30
59.6123,28
59.7980,26
59.9838,28
60.0024,26