File: notebooks/data/xrd_data/ML_20220718_24_SJD_4_LaB6-2min.csv
;,2THETA,
5.0000,131
5.1858,127
5.3715,118
5.5573,123
5.7430,92
5.9288,107
6.1145,88
6.3003,110
6.4860,94
6.6718,91
6.8576,102
7.0433,71
7.2291,81
7.4148,92
7.6006,101
7.7863,90
7.9721,80
8.1579,89
8.3436,90
8.5294,101
8.7151,101
8.9009,99
9.0866,118
9.2724,107
9.4581,107
9.6439,97
9.8297,120
10.0154,121
10.2012,129
10.3869,139
10.5727,119
10.7584,130
10.9442,141
11.1299,117
11.3157,122
11.5015,114
11.6872,114
11.8730,118
12.0587,130
12.2445,104
12.4302,115
12.6160,116
12.8018,125
12.9875,100
13.1733,88
13.3590,99
13.5448,94
13.7305,94
13.9163,85
14.1020,100
14.2878,74
14.4736,88
14.6593,84
14.8451,75
15.0308,83
15.2166,78
15.4023,85
15.5881,83
15.7738,88
15.9596,83
16.1454,57
16.3311,86
16.5169,79
16.7026,80
16.8884,76
17.0741,77
17.2599,74
17.4457,87
17.6314,76
17.8172,75
18.0029,92
18.1887,85
18.3744,89
18.5602,68
18.7459,92
18.9317,79
19.1175,85
19.3032,80
19.4890,94
19.6747,99
19.8605,98
20.0462,96
20.2320,93
20.4177,103
20.6035,81
20.7893,97
20.9750,83
21.1608,102
21.3465,248
21.5323,99
21.7180,112
21.9038,97
22.0896,97
22.2753,95
22.4611,107
22.6468,92
22.8326,99
23.0183,112
23.2041,74
23.3898,95
23.5756,102
23.7614,100
23.9471,103
24.1329,88
24.3186,108
24.5044,116
24.6901,83
24.8759,114
25.0616,99
25.2474,90
25.4332,98
25.6189,91
25.8047,91
25.9904,103
26.1762,92
26.3619,93
26.5477,96
26.7335,90
26.9192,84
27.1050,84
27.2907,96
27.4765,112
27.6622,99
27.8480,86
28.0337,83
28.2195,86
28.4053,96
28.5910,83
28.7768,58
28.9625,73
29.1483,74
29.3340,79
29.5198,63
29.7055,92
29.8913,64
30.0771,67
30.2628,79
30.4486,112
30.6343,78
30.8201,81
31.0058,68
31.1916,74
31.3774,68
31.5631,56
31.7489,69
31.9346,72
32.1204,68
32.3061,61
32.4919,67
32.6776,46
32.8634,64
33.0492,73
33.2349,67
33.4207,58
33.6064,52
33.7922,52
33.9779,55
34.1637,57
34.3494,60
34.5352,44
34.7210,72
34.9067,61
35.0925,62
35.2782,51
35.4640,52
35.6497,57
35.8355,46
36.0213,51
36.2070,48
36.3928,38
36.5785,44
36.7643,50
36.9500,45
37.1358,40
37.3215,50
37.5073,56
37.6931,50
37.8788,44
38.0646,43
38.2503,41
38.4361,49
38.6218,38
38.8076,44
38.9933,47
39.1791,38
39.3649,41
39.5506,40
39.7364,46
39.9221,38
40.1079,44
40.2936,40
40.4794,38
40.6652,37
40.8509,39
41.0367,47
41.2224,28
41.4082,42
41.5939,42
41.7797,35
41.9654,36
42.1512,30
42.3370,31
42.5227,44
42.7085,38
42.8942,46
43.0800,39
43.2657,41
43.4515,46
43.6372,62
43.8230,26
44.0088,40
44.1945,30
44.3803,39
44.5660,42
44.7518,40
44.9375,43
45.1233,26
45.3091,29
45.4948,41
45.6806,23
45.8663,34
46.0521,35
46.2378,32
46.4236,37
46.6093,30
46.7951,31
46.9809,20
47.1666,31
47.3524,44
47.5381,32
47.7239,33
47.9096,33
48.0954,31
48.2811,38
48.4669,20
48.6527,31
48.8384,30
49.0242,32
49.2099,32
49.3957,42
49.5814,27
49.7672,31
49.9530,28
50.1387,24
50.3245,28
50.5102,29
50.6960,37
50.8817,26
51.0675,27
51.2532,30
51.4390,30
51.6248,41
51.8105,33
51.9963,28
52.1820,32
52.3678,30
52.5535,28
52.7393,27
52.9250,38
53.1108,33
53.2966,23
53.4823,28
53.6681,31
53.8538,28
54.0396,26
54.2253,26
54.4111,27
54.5969,34
54.7826,24
54.9684,19
55.1541,25
55.3399,17
55.5256,21
55.7114,20
55.8971,34
56.0829,29
56.2687,29
56.4544,25
56.6402,34
56.8259,21
57.0117,29
57.1974,30
57.3832,29
57.5689,23
57.7547,33
57.9405,29
58.1262,31
58.3120,32
58.4977,27
58.6835,26
58.8692,24
59.0550,23
59.2408,33
59.4265,30
59.6123,24
59.7980,26
59.9838,39
60.0024,23