File: notebooks/data/xrd_data/ML_20220718_46_SJD_4_LaB6-4min.csv
;,2THETA,
5.0000,279
5.1858,249
5.3715,272
5.5573,226
5.7430,207
5.9288,215
6.1145,171
6.3003,208
6.4860,187
6.6718,183
6.8576,186
7.0433,164
7.2291,176
7.4148,154
7.6006,162
7.7863,181
7.9721,170
8.1579,181
8.3436,174
8.5294,207
8.7151,198
8.9009,227
9.0866,237
9.2724,223
9.4581,213
9.6439,222
9.8297,220
10.0154,231
10.2012,217
10.3869,251
10.5727,253
10.7584,208
10.9442,244
11.1299,226
11.3157,250
11.5015,240
11.6872,235
11.8730,215
12.0587,209
12.2445,207
12.4302,209
12.6160,226
12.8018,219
12.9875,216
13.1733,210
13.3590,166
13.5448,180
13.7305,185
13.9163,193
14.1020,188
14.2878,185
14.4736,166
14.6593,164
14.8451,175
15.0308,142
15.2166,150
15.4023,170
15.5881,179
15.7738,144
15.9596,150
16.1454,151
16.3311,169
16.5169,168
16.7026,154
16.8884,160
17.0741,158
17.2599,162
17.4457,153
17.6314,144
17.8172,175
18.0029,146
18.1887,167
18.3744,161
18.5602,160
18.7459,183
18.9317,144
19.1175,190
19.3032,181
19.4890,169
19.6747,187
19.8605,173
20.0462,171
20.2320,202
20.4177,190
20.6035,191
20.7893,166
20.9750,175
21.1608,234
21.3465,497
21.5323,196
21.7180,203
21.9038,196
22.0896,204
22.2753,218
22.4611,205
22.6468,209
22.8326,205
23.0183,208
23.2041,196
23.3898,193
23.5756,200
23.7614,195
23.9471,177
24.1329,214
24.3186,237
24.5044,193
24.6901,185
24.8759,196
25.0616,218
25.2474,221
25.4332,223
25.6189,183
25.8047,195
25.9904,203
26.1762,206
26.3619,206
26.5477,189
26.7335,163
26.9192,170
27.1050,194
27.2907,225
27.4765,194
27.6622,165
27.8480,203
28.0337,205
28.2195,156
28.4053,169
28.5910,155
28.7768,184
28.9625,190
29.1483,162
29.3340,176
29.5198,156
29.7055,172
29.8913,163
30.0771,164
30.2628,153
30.4486,216
30.6343,150
30.8201,145
31.0058,157
31.1916,157
31.3774,139
31.5631,125
31.7489,151
31.9346,141
32.1204,123
32.3061,116
32.4919,135
32.6776,144
32.8634,145
33.0492,133
33.2349,109
33.4207,122
33.6064,134
33.7922,111
33.9779,119
34.1637,114
34.3494,102
34.5352,108
34.7210,150
34.9067,101
35.0925,120
35.2782,101
35.4640,116
35.6497,93
35.8355,88
36.0213,111
36.2070,96
36.3928,91
36.5785,90
36.7643,94
36.9500,101
37.1358,77
37.3215,92
37.5073,116
37.6931,98
37.8788,86
38.0646,78
38.2503,90
38.4361,87
38.6218,87
38.8076,91
38.9933,85
39.1791,80
39.3649,74
39.5506,80
39.7364,85
39.9221,87
40.1079,78
40.2936,84
40.4794,78
40.6652,83
40.8509,86
41.0367,79
41.2224,56
41.4082,82
41.5939,67
41.7797,70
41.9654,69
42.1512,71
42.3370,80
42.5227,77
42.7085,89
42.8942,92
43.0800,67
43.2657,77
43.4515,114
43.6372,92
43.8230,62
44.0088,58
44.1945,84
44.3803,79
44.5660,79
44.7518,77
44.9375,72
45.1233,73
45.3091,52
45.4948,60
45.6806,60
45.8663,68
46.0521,62
46.2378,67
46.4236,54
46.6093,54
46.7951,60
46.9809,78
47.1666,54
47.3524,73
47.5381,45
47.7239,65
47.9096,69
48.0954,65
48.2811,56
48.4669,70
48.6527,69
48.8384,73
49.0242,70
49.2099,55
49.3957,57
49.5814,71
49.7672,54
49.9530,55
50.1387,66
50.3245,62
50.5102,61
50.6960,59
50.8817,59
51.0675,65
51.2532,68
51.4390,78
51.6248,70
51.8105,60
51.9963,66
52.1820,60
52.3678,63
52.5535,56
52.7393,63
52.9250,56
53.1108,78
53.2966,52
53.4823,59
53.6681,53
53.8538,52
54.0396,57
54.2253,64
54.4111,40
54.5969,55
54.7826,52
54.9684,62
55.1541,51
55.3399,56
55.5256,66
55.7114,64
55.8971,42
56.0829,55
56.2687,61
56.4544,60
56.6402,53
56.8259,48
57.0117,54
57.1974,55
57.3832,57
57.5689,51
57.7547,62
57.9405,42
58.1262,46
58.3120,58
58.4977,42
58.6835,60
58.8692,57
59.0550,41
59.2408,59
59.4265,48
59.6123,42
59.7980,50
59.9838,60
60.0024,61