File: notebooks/data/xrd_data/ML_20220720_2_SJD_4_LaB6-1min.uxd
; (content of file Y:\Sam\Apurva-07-20-2022\puck4\ML_20220718_2_SJD_0_LaB6-1min.raw)
_FILEVERSION = 3
_SAMPLE = ML_20220718_2_SJD_0_LaB6-1mi
_+SAMPLE =
_SITE = USA
_USER = Administrator
_GONIOMETER_CODE = 20
; Goniometer : D8 theta/2theta, stage : Unknown
_ATTACHMENTS_CODE = 0
_GONIOMETER_RADIUS = 200.5
_FIXED_DIVSLIT = 0.6
_FIXED_SAMPLESLIT = 0
_SOLLER_SLITS = 2
_FIXED_DETSLIT = 9.55
_MONOCHROMATOR = 0
; Incident beam monochromator : None
_SOLLER_SLITS_2 = N
_THIN_FILM = N
_BETA_FILTER = Y
_FIXED_ANTISLIT = 5.89
_ANALYZER_CODE = 0
; Received beam analyzer : None
_DATEMEASURED = "21-Jul-2022 03:02:26"
_WL_UNIT = A
_WL1 = 1.5406
_WL2 = 1.54439
_WL3 = 1.39222
_WLRATIO = 0.5
_ANODE = Cu
_V4_INF_CREATOR = XRDWizard
_V4_INF_CREATOR_VERSION = V2.9.0.22
_V4_INF_WIZARD_VERSION = V2.9.0.22
_V4_INF_WIZARD_ADDINS = V2.9.0.22
_V4_INF_WIZARD_DOCTYPE = XRD
_V4_INF_OSUSER = McQueenLab
_V4_INF_USER = Administrator
_V4_INF_SITE = USA
_V4_INF_SAMPLEID = ML_20220718_2_SJD_0_LaB6-1mi

; Data for range 1
_DRIVE = COUPLED
_STEPTIME = 4.23
_STEPSIZE = 0.0185756
_STEPMODE = C
_START = 5
_THETA = 2.5
_2THETA = 5
_KHI = 0
_PHI = 0
_X = 0
_Y = 0
_Z = 0
_DETECTOR = 5
; Detector type : Unknown
_DETECTORSLIT = unkn
_AUX1 = 0
_AUX2 = 0
_AUX3 = 0
_TIMESTARTED = 15
_TEMP_RATE = -1
_TEMP_DELAY = -1
_KV = 40
_MA = 40
_RANGE_WL = 1.5406
_3DPLANE = 0
_V4_ADDITIONALDETECTOR = 257
_V4_PSD2THETA = 3.4337
_V4_PSDCHANNEL1 = 0
_V4_PSDAPERTURE = 12.68
_V4_PSDTYPE = 5
_V4_PSDFIXED = 0
_V4_COUNTERS_MASK = 4096
_V4_DRIVES_MASK = 0
_V4_ENCODERS_MASK = 0
_2THETACOUNTS = 1
; 2THETA  PSD
   5.0000        114
   5.1858         84
   5.3715         75
   5.5573         78
   5.7430         74
   5.9288         80
   6.1145         63
   6.3003         76
   6.4860         76
   6.6718         54
   6.8576         69
   7.0433         57
   7.2291         62
   7.4148         63
   7.6006         70
   7.7863         50
   7.9721         65
   8.1579         64
   8.3436         59
   8.5294         79
   8.7151         59
   8.9009         71
   9.0866         75
   9.2724         75
   9.4581         76
   9.6439         66
   9.8297         84
  10.0154         87
  10.2012         72
  10.3869         85
  10.5727         95
  10.7584         89
  10.9442         92
  11.1299         86
  11.3157         89
  11.5015         79
  11.6872         72
  11.8730         90
  12.0587         73
  12.2445         84
  12.4302         85
  12.6160         87
  12.8018         77
  12.9875         76
  13.1733         54
  13.3590         64
  13.5448         78
  13.7305         79
  13.9163         85
  14.1020         70
  14.2878         68
  14.4736         70
  14.6593         55
  14.8451         65
  15.0308         66
  15.2166         68
  15.4023         63
  15.5881         61
  15.7738         71
  15.9596         52
  16.1454         67
  16.3311         63
  16.5169         40
  16.7026         51
  16.8884         56
  17.0741         67
  17.2599         61
  17.4457         64
  17.6314         46
  17.8172         66
  18.0029         51
  18.1887         60
  18.3744         57
  18.5602         53
  18.7459         71
  18.9317         63
  19.1175         61
  19.3032         61
  19.4890         73
  19.6747         76
  19.8605         60
  20.0462         64
  20.2320         49
  20.4177         65
  20.6035         78
  20.7893         60
  20.9750         59
  21.1608         94
  21.3465        212
  21.5323         74
  21.7180         67
  21.9038         65
  22.0896         60
  22.2753         70
  22.4611         62
  22.6468         62
  22.8326         73
  23.0183         76
  23.2041         61
  23.3898         55
  23.5756         76
  23.7614         65
  23.9471         62
  24.1329         69
  24.3186         97
  24.5044         76
  24.6901         58
  24.8759         79
  25.0616         71
  25.2474         63
  25.4332         58
  25.6189         87
  25.8047         64
  25.9904         64
  26.1762         80
  26.3619         75
  26.5477         81
  26.7335         63
  26.9192         73
  27.1050         71
  27.2907         87
  27.4765         59
  27.6622         68
  27.8480         70
  28.0337         63
  28.2195         58
  28.4053         77
  28.5910         66
  28.7768         51
  28.9625         57
  29.1483         49
  29.3340         66
  29.5198         49
  29.7055         58
  29.8913         55
  30.0771         54
  30.2628         64
  30.4486         91
  30.6343         63
  30.8201         42
  31.0058         44
  31.1916         57
  31.3774         45
  31.5631         55
  31.7489         39
  31.9346         49
  32.1204         47
  32.3061         36
  32.4919         46
  32.6776         38
  32.8634         44
  33.0492         37
  33.2349         44
  33.4207         37
  33.6064         36
  33.7922         43
  33.9779         53
  34.1637         44
  34.3494         43
  34.5352         47
  34.7210         55
  34.9067         45
  35.0925         37
  35.2782         31
  35.4640         34
  35.6497         38
  35.8355         41
  36.0213         35
  36.2070         35
  36.3928         31
  36.5785         36
  36.7643         29
  36.9500         40
  37.1358         40
  37.3215         32
  37.5073         39
  37.6931         23
  37.8788         39
  38.0646         29
  38.2503         29
  38.4361         35
  38.6218         30
  38.8076         31
  38.9933         29
  39.1791         27
  39.3649         28
  39.5506         27
  39.7364         32
  39.9221         33
  40.1079         32
  40.2936         29
  40.4794         40
  40.6652         52
  40.8509         23
  41.0367         35
  41.2224         16
  41.4082         31
  41.5939         25
  41.7797         32
  41.9654         34
  42.1512         26
  42.3370         23
  42.5227         38
  42.7085         21
  42.8942         30
  43.0800         19
  43.2657         28
  43.4515         40
  43.6372         36
  43.8230         19
  44.0088         28
  44.1945         22
  44.3803         39
  44.5660         30
  44.7518         29
  44.9375         29
  45.1233         29
  45.3091         25
  45.4948         24
  45.6806         19
  45.8663         27
  46.0521         25
  46.2378         26
  46.4236         19
  46.6093         21
  46.7951         24
  46.9809         30
  47.1666         27
  47.3524         26
  47.5381         25
  47.7239         19
  47.9096         23
  48.0954         26
  48.2811         19
  48.4669         21
  48.6527         27
  48.8384         20
  49.0242         27
  49.2099         16
  49.3957         29
  49.5814         26
  49.7672         24
  49.9530         22
  50.1387         22
  50.3245         26
  50.5102         20
  50.6960         16
  50.8817         16
  51.0675         26
  51.2532         21
  51.4390         24
  51.6248         27
  51.8105         30
  51.9963         22
  52.1820         16
  52.3678         15
  52.5535         14
  52.7393         22
  52.9250         21
  53.1108         16
  53.2966         17
  53.4823         21
  53.6681         19
  53.8538         21
  54.0396         24
  54.2253         25
  54.4111         16
  54.5969         21
  54.7826         22
  54.9684         19
  55.1541         18
  55.3399         31
  55.5256         21
  55.7114         25
  55.8971         25
  56.0829         23
  56.2687         24
  56.4544         21
  56.6402         21
  56.8259         21
  57.0117         18
  57.1974         16
  57.3832         18
  57.5689         21
  57.7547         30
  57.9405         10
  58.1262         21
  58.3120         27
  58.4977         19
  58.6835         15
  58.8692         15
  59.0550         25
  59.2408         22
  59.4265         15
  59.6123         23
  59.7980         25
  59.9838         17
  60.0024         18