File: notebooks/data/xrd_data/ML_20220718_48_SJD_4_LaB6-1min.csv
;,2THETA,
5.0000,109
5.1858,91
5.3715,74
5.5573,85
5.7430,75
5.9288,80
6.1145,67
6.3003,57
6.4860,79
6.6718,63
6.8576,70
7.0433,48
7.2291,58
7.4148,59
7.6006,56
7.7863,73
7.9721,63
8.1579,87
8.3436,70
8.5294,63
8.7151,86
8.9009,69
9.0866,79
9.2724,80
9.4581,78
9.6439,92
9.8297,88
10.0154,90
10.2012,85
10.3869,85
10.5727,89
10.7584,78
10.9442,89
11.1299,78
11.3157,90
11.5015,79
11.6872,64
11.8730,84
12.0587,91
12.2445,80
12.4302,91
12.6160,71
12.8018,64
12.9875,79
13.1733,87
13.3590,70
13.5448,81
13.7305,62
13.9163,64
14.1020,75
14.2878,54
14.4736,63
14.6593,56
14.8451,61
15.0308,51
15.2166,61
15.4023,50
15.5881,47
15.7738,50
15.9596,59
16.1454,59
16.3311,47
16.5169,61
16.7026,62
16.8884,51
17.0741,46
17.2599,49
17.4457,65
17.6314,60
17.8172,46
18.0029,51
18.1887,62
18.3744,58
18.5602,57
18.7459,63
18.9317,54
19.1175,79
19.3032,61
19.4890,69
19.6747,69
19.8605,67
20.0462,53
20.2320,62
20.4177,59
20.6035,67
20.7893,83
20.9750,70
21.1608,84
21.3465,193
21.5323,76
21.7180,96
21.9038,57
22.0896,62
22.2753,66
22.4611,74
22.6468,54
22.8326,68
23.0183,68
23.2041,74
23.3898,80
23.5756,68
23.7614,67
23.9471,77
24.1329,79
24.3186,78
24.5044,69
24.6901,65
24.8759,72
25.0616,81
25.2474,73
25.4332,77
25.6189,66
25.8047,71
25.9904,72
26.1762,63
26.3619,72
26.5477,65
26.7335,63
26.9192,80
27.1050,84
27.2907,83
27.4765,72
27.6622,69
27.8480,49
28.0337,68
28.2195,69
28.4053,71
28.5910,65
28.7768,57
28.9625,63
29.1483,73
29.3340,63
29.5198,55
29.7055,59
29.8913,53
30.0771,53
30.2628,63
30.4486,83
30.6343,62
30.8201,59
31.0058,58
31.1916,61
31.3774,52
31.5631,47
31.7489,55
31.9346,42
32.1204,39
32.3061,51
32.4919,53
32.6776,42
32.8634,52
33.0492,51
33.2349,46
33.4207,54
33.6064,51
33.7922,44
33.9779,44
34.1637,30
34.3494,50
34.5352,40
34.7210,48
34.9067,47
35.0925,38
35.2782,43
35.4640,34
35.6497,43
35.8355,36
36.0213,35
36.2070,32
36.3928,31
36.5785,42
36.7643,42
36.9500,35
37.1358,25
37.3215,37
37.5073,40
37.6931,37
37.8788,37
38.0646,31
38.2503,23
38.4361,36
38.6218,39
38.8076,27
38.9933,32
39.1791,39
39.3649,34
39.5506,25
39.7364,33
39.9221,25
40.1079,25
40.2936,34
40.4794,30
40.6652,21
40.8509,28
41.0367,37
41.2224,26
41.4082,26
41.5939,26
41.7797,40
41.9654,28
42.1512,24
42.3370,28
42.5227,27
42.7085,18
42.8942,33
43.0800,24
43.2657,28
43.4515,34
43.6372,41
43.8230,26
44.0088,28
44.1945,29
44.3803,35
44.5660,31
44.7518,32
44.9375,22
45.1233,31
45.3091,29
45.4948,24
45.6806,33
45.8663,18
46.0521,27
46.2378,30
46.4236,21
46.6093,27
46.7951,24
46.9809,25
47.1666,19
47.3524,29
47.5381,17
47.7239,18
47.9096,22
48.0954,23
48.2811,17
48.4669,30
48.6527,21
48.8384,25
49.0242,28
49.2099,28
49.3957,32
49.5814,28
49.7672,26
49.9530,24
50.1387,24
50.3245,23
50.5102,21
50.6960,22
50.8817,21
51.0675,26
51.2532,26
51.4390,17
51.6248,24
51.8105,28
51.9963,26
52.1820,19
52.3678,12
52.5535,19
52.7393,22
52.9250,25
53.1108,23
53.2966,24
53.4823,20
53.6681,17
53.8538,20
54.0396,24
54.2253,24
54.4111,28
54.5969,19
54.7826,18
54.9684,18
55.1541,22
55.3399,17
55.5256,19
55.7114,15
55.8971,20
56.0829,23
56.2687,19
56.4544,19
56.6402,19
56.8259,30
57.0117,30
57.1974,11
57.3832,11
57.5689,29
57.7547,28
57.9405,17
58.1262,22
58.3120,24
58.4977,20
58.6835,14
58.8692,23
59.0550,17
59.2408,17
59.4265,21
59.6123,14
59.7980,18
59.9838,20
60.0024,24