File: notebooks/data/xrd_data/ML_20220721_27_SJD_4_LaB6-4min.uxd
; (content of file Y:\Sam\Apurva-07-20-2022\puck1\ML_20220721_27_SJD_0_LaB6-4min.raw)
_FILEVERSION = 3
_SAMPLE = ML_20220721_27_SJD_0_LaB6-4min
_+SAMPLE =
_SITE = USA
_USER = Administrator
_GONIOMETER_CODE = 20
; Goniometer : D8 theta/2theta, stage : Unknown
_ATTACHMENTS_CODE = 0
_GONIOMETER_RADIUS = 200.5
_FIXED_DIVSLIT = 0.6
_FIXED_SAMPLESLIT = 0
_SOLLER_SLITS = 2
_FIXED_DETSLIT = 9.55
_MONOCHROMATOR = 0
; Incident beam monochromator : None
_SOLLER_SLITS_2 = N
_THIN_FILM = N
_BETA_FILTER = Y
_FIXED_ANTISLIT = 5.89
_ANALYZER_CODE = 0
; Received beam analyzer : None
_DATEMEASURED = "25-Jul-2022 15:53:34"
_WL_UNIT = A
_WL1 = 1.5406
_WL2 = 1.54439
_WL3 = 1.39222
_WLRATIO = 0.5
_ANODE = Cu
_V4_INF_CREATOR = XRDWizard
_V4_INF_CREATOR_VERSION = V2.9.0.22
_V4_INF_WIZARD_VERSION = V2.9.0.22
_V4_INF_WIZARD_ADDINS = V2.9.0.22
_V4_INF_WIZARD_DOCTYPE = XRD
_V4_INF_OSUSER = McQueenLab
_V4_INF_USER = Administrator
_V4_INF_SITE = USA
_V4_INF_SAMPLEID = ML_20220721_27_SJD_0_LaB6-4min

; Data for range 1
_DRIVE = COUPLED
_STEPTIME = 11.28
_STEPSIZE = 0.0185756
_STEPMODE = C
_START = 5
_THETA = 2.5
_2THETA = 5
_KHI = 0
_PHI = 0
_X = 0
_Y = 0
_Z = 0
_DETECTOR = 5
; Detector type : Unknown
_DETECTORSLIT = unkn
_AUX1 = 0
_AUX2 = 0
_AUX3 = 0
_TIMESTARTED = 15
_TEMP_RATE = -1
_TEMP_DELAY = -1
_KV = 40
_MA = 40
_RANGE_WL = 1.5406
_3DPLANE = 0
_V4_ADDITIONALDETECTOR = 257
_V4_PSD2THETA = 3.3651
_V4_PSDCHANNEL1 = 0
_V4_PSDAPERTURE = 12.68
_V4_PSDTYPE = 5
_V4_PSDFIXED = 0
_V4_COUNTERS_MASK = 4096
_V4_DRIVES_MASK = 0
_V4_ENCODERS_MASK = 0
_2THETACOUNTS = 1
; 2THETA  PSD
   5.0000        250
   5.1858        263
   5.3715        231
   5.5573        223
   5.7430        221
   5.9288        213
   6.1145        197
   6.3003        197
   6.4860        184
   6.6718        178
   6.8576        159
   7.0433        145
   7.2291        171
   7.4148        146
   7.6006        188
   7.7863        189
   7.9721        176
   8.1579        168
   8.3436        224
   8.5294        199
   8.7151        199
   8.9009        210
   9.0866        206
   9.2724        219
   9.4581        211
   9.6439        237
   9.8297        217
  10.0154        225
  10.2012        261
  10.3869        234
  10.5727        241
  10.7584        254
  10.9442        282
  11.1299        233
  11.3157        254
  11.5015        208
  11.6872        235
  11.8730        244
  12.0587        241
  12.2445        237
  12.4302        225
  12.6160        206
  12.8018        208
  12.9875        228
  13.1733        211
  13.3590        191
  13.5448        206
  13.7305        183
  13.9163        202
  14.1020        194
  14.2878        185
  14.4736        187
  14.6593        150
  14.8451        197
  15.0308        185
  15.2166        192
  15.4023        179
  15.5881        140
  15.7738        149
  15.9596        152
  16.1454        179
  16.3311        144
  16.5169        172
  16.7026        150
  16.8884        152
  17.0741        154
  17.2599        165
  17.4457        154
  17.6314        165
  17.8172        159
  18.0029        181
  18.1887        146
  18.3744        156
  18.5602        143
  18.7459        169
  18.9317        160
  19.1175        190
  19.3032        184
  19.4890        186
  19.6747        182
  19.8605        197
  20.0462        171
  20.2320        182
  20.4177        168
  20.6035        196
  20.7893        188
  20.9750        199
  21.1608        219
  21.3465        501
  21.5323        217
  21.7180        192
  21.9038        199
  22.0896        183
  22.2753        186
  22.4611        202
  22.6468        202
  22.8326        216
  23.0183        185
  23.2041        185
  23.3898        177
  23.5756        189
  23.7614        218
  23.9471        186
  24.1329        198
  24.3186        258
  24.5044        182
  24.6901        212
  24.8759        198
  25.0616        196
  25.2474        201
  25.4332        199
  25.6189        195
  25.8047        202
  25.9904        186
  26.1762        197
  26.3619        207
  26.5477        199
  26.7335        177
  26.9192        193
  27.1050        180
  27.2907        206
  27.4765        181
  27.6622        201
  27.8480        200
  28.0337        154
  28.2195        163
  28.4053        167
  28.5910        153
  28.7768        137
  28.9625        170
  29.1483        159
  29.3340        161
  29.5198        155
  29.7055        152
  29.8913        166
  30.0771        150
  30.2628        173
  30.4486        240
  30.6343        126
  30.8201        144
  31.0058        117
  31.1916        148
  31.3774        143
  31.5631        153
  31.7489        156
  31.9346        127
  32.1204        157
  32.3061        141
  32.4919        126
  32.6776        137
  32.8634        119
  33.0492        123
  33.2349        122
  33.4207        118
  33.6064        115
  33.7922        133
  33.9779        119
  34.1637        103
  34.3494        110
  34.5352        102
  34.7210        138
  34.9067        154
  35.0925        120
  35.2782         96
  35.4640        122
  35.6497        102
  35.8355        108
  36.0213        102
  36.2070         86
  36.3928         94
  36.5785         95
  36.7643         93
  36.9500         94
  37.1358         81
  37.3215         99
  37.5073        111
  37.6931        116
  37.8788         83
  38.0646         93
  38.2503        100
  38.4361         90
  38.6218         88
  38.8076         72
  38.9933         75
  39.1791         74
  39.3649        109
  39.5506         74
  39.7364         73
  39.9221         88
  40.1079         81
  40.2936         77
  40.4794         74
  40.6652         85
  40.8509         83
  41.0367         87
  41.2224         82
  41.4082         69
  41.5939         85
  41.7797         89
  41.9654         80
  42.1512         91
  42.3370         71
  42.5227         98
  42.7085         72
  42.8942         76
  43.0800         68
  43.2657         96
  43.4515         93
  43.6372        121
  43.8230         74
  44.0088         72
  44.1945         74
  44.3803         78
  44.5660         82
  44.7518         82
  44.9375         74
  45.1233         61
  45.3091         60
  45.4948         79
  45.6806         75
  45.8663         76
  46.0521         75
  46.2378         67
  46.4236         76
  46.6093         60
  46.7951         49
  46.9809         58
  47.1666         56
  47.3524         65
  47.5381         51
  47.7239         58
  47.9096         58
  48.0954         67
  48.2811         57
  48.4669         68
  48.6527         60
  48.8384         74
  49.0242         91
  49.2099         65
  49.3957         51
  49.5814         58
  49.7672         72
  49.9530         60
  50.1387         76
  50.3245         71
  50.5102         62
  50.6960         54
  50.8817         68
  51.0675         59
  51.2532         55
  51.4390         78
  51.6248         60
  51.8105         67
  51.9963         75
  52.1820         62
  52.3678         70
  52.5535         66
  52.7393         53
  52.9250         63
  53.1108         78
  53.2966         59
  53.4823         57
  53.6681         62
  53.8538         62
  54.0396         59
  54.2253         61
  54.4111         44
  54.5969         60
  54.7826         55
  54.9684         59
  55.1541         62
  55.3399         54
  55.5256         68
  55.7114         54
  55.8971         60
  56.0829         61
  56.2687         53
  56.4544         56
  56.6402         56
  56.8259         73
  57.0117         52
  57.1974         64
  57.3832         54
  57.5689         62
  57.7547         54
  57.9405         71
  58.1262         59
  58.3120         52
  58.4977         47
  58.6835         56
  58.8692         61
  59.0550         53
  59.2408         50
  59.4265         51
  59.6123         56
  59.7980         50
  59.9838         62
  60.0024         46