File: notebooks/data/xrd_data/ML_20220718_48_SJD_4_LaB6-2min.csv
;,2THETA,
5.0000,124
5.1858,114
5.3715,106
5.5573,98
5.7430,108
5.9288,93
6.1145,88
6.3003,104
6.4860,91
6.6718,84
6.8576,77
7.0433,66
7.2291,80
7.4148,93
7.6006,77
7.7863,88
7.9721,79
8.1579,101
8.3436,91
8.5294,92
8.7151,108
8.9009,112
9.0866,100
9.2724,116
9.4581,118
9.6439,98
9.8297,111
10.0154,127
10.2012,135
10.3869,136
10.5727,105
10.7584,108
10.9442,109
11.1299,117
11.3157,131
11.5015,115
11.6872,112
11.8730,111
12.0587,127
12.2445,105
12.4302,100
12.6160,115
12.8018,120
12.9875,90
13.1733,90
13.3590,98
13.5448,103
13.7305,90
13.9163,87
14.1020,102
14.2878,92
14.4736,84
14.6593,103
14.8451,74
15.0308,78
15.2166,70
15.4023,105
15.5881,60
15.7738,79
15.9596,76
16.1454,75
16.3311,73
16.5169,86
16.7026,79
16.8884,72
17.0741,73
17.2599,83
17.4457,87
17.6314,74
17.8172,90
18.0029,92
18.1887,73
18.3744,81
18.5602,75
18.7459,68
18.9317,85
19.1175,88
19.3032,77
19.4890,71
19.6747,79
19.8605,85
20.0462,93
20.2320,69
20.4177,92
20.6035,109
20.7893,89
20.9750,108
21.1608,133
21.3465,240
21.5323,94
21.7180,101
21.9038,99
22.0896,83
22.2753,97
22.4611,85
22.6468,103
22.8326,112
23.0183,103
23.2041,101
23.3898,93
23.5756,101
23.7614,97
23.9471,124
24.1329,84
24.3186,107
24.5044,91
24.6901,109
24.8759,82
25.0616,92
25.2474,100
25.4332,83
25.6189,99
25.8047,84
25.9904,79
26.1762,88
26.3619,81
26.5477,73
26.7335,87
26.9192,76
27.1050,101
27.2907,118
27.4765,75
27.6622,76
27.8480,87
28.0337,79
28.2195,71
28.4053,90
28.5910,77
28.7768,86
28.9625,79
29.1483,66
29.3340,79
29.5198,62
29.7055,89
29.8913,74
30.0771,72
30.2628,83
30.4486,107
30.6343,82
30.8201,67
31.0058,56
31.1916,73
31.3774,69
31.5631,60
31.7489,60
31.9346,68
32.1204,66
32.3061,63
32.4919,85
32.6776,64
32.8634,57
33.0492,67
33.2349,54
33.4207,66
33.6064,61
33.7922,65
33.9779,57
34.1637,70
34.3494,61
34.5352,53
34.7210,65
34.9067,51
35.0925,51
35.2782,65
35.4640,54
35.6497,41
35.8355,53
36.0213,52
36.2070,42
36.3928,47
36.5785,60
36.7643,53
36.9500,53
37.1358,54
37.3215,52
37.5073,61
37.6931,42
37.8788,33
38.0646,47
38.2503,54
38.4361,40
38.6218,37
38.8076,38
38.9933,47
39.1791,44
39.3649,42
39.5506,42
39.7364,33
39.9221,34
40.1079,44
40.2936,43
40.4794,40
40.6652,39
40.8509,44
41.0367,22
41.2224,37
41.4082,35
41.5939,37
41.7797,39
41.9654,34
42.1512,42
42.3370,42
42.5227,41
42.7085,38
42.8942,32
43.0800,40
43.2657,46
43.4515,50
43.6372,49
43.8230,38
44.0088,33
44.1945,40
44.3803,36
44.5660,45
44.7518,32
44.9375,38
45.1233,28
45.3091,36
45.4948,30
45.6806,39
45.8663,37
46.0521,31
46.2378,34
46.4236,34
46.6093,41
46.7951,33
46.9809,37
47.1666,23
47.3524,24
47.5381,37
47.7239,30
47.9096,27
48.0954,37
48.2811,33
48.4669,35
48.6527,31
48.8384,34
49.0242,40
49.2099,21
49.3957,41
49.5814,28
49.7672,25
49.9530,38
50.1387,26
50.3245,26
50.5102,24
50.6960,23
50.8817,23
51.0675,21
51.2532,25
51.4390,37
51.6248,27
51.8105,35
51.9963,28
52.1820,26
52.3678,24
52.5535,38
52.7393,34
52.9250,23
53.1108,30
53.2966,44
53.4823,25
53.6681,36
53.8538,30
54.0396,46
54.2253,29
54.4111,18
54.5969,22
54.7826,24
54.9684,33
55.1541,23
55.3399,27
55.5256,26
55.7114,31
55.8971,25
56.0829,29
56.2687,31
56.4544,28
56.6402,37
56.8259,34
57.0117,32
57.1974,26
57.3832,31
57.5689,29
57.7547,32
57.9405,21
58.1262,27
58.3120,22
58.4977,35
58.6835,32
58.8692,23
59.0550,34
59.2408,34
59.4265,25
59.6123,26
59.7980,32
59.9838,17
60.0024,25