File: notebooks/data/xrd_data/ML_20220718_53_SJD_4_LaB6-1min.csv
;,2THETA,
5.0000,87
5.1858,95
5.3715,97
5.5573,86
5.7430,87
5.9288,72
6.1145,51
6.3003,74
6.4860,55
6.6718,61
6.8576,64
7.0433,47
7.2291,72
7.4148,57
7.6006,52
7.7863,60
7.9721,71
8.1579,72
8.3436,75
8.5294,64
8.7151,77
8.9009,74
9.0866,84
9.2724,85
9.4581,87
9.6439,84
9.8297,79
10.0154,101
10.2012,74
10.3869,91
10.5727,83
10.7584,70
10.9442,73
11.1299,92
11.3157,89
11.5015,87
11.6872,85
11.8730,67
12.0587,80
12.2445,74
12.4302,94
12.6160,89
12.8018,78
12.9875,63
13.1733,70
13.3590,76
13.5448,75
13.7305,79
13.9163,60
14.1020,67
14.2878,76
14.4736,67
14.6593,67
14.8451,62
15.0308,81
15.2166,64
15.4023,63
15.5881,68
15.7738,63
15.9596,59
16.1454,70
16.3311,59
16.5169,46
16.7026,59
16.8884,63
17.0741,64
17.2599,54
17.4457,60
17.6314,49
17.8172,68
18.0029,59
18.1887,69
18.3744,53
18.5602,59
18.7459,66
18.9317,58
19.1175,62
19.3032,61
19.4890,70
19.6747,57
19.8605,72
20.0462,78
20.2320,68
20.4177,81
20.6035,68
20.7893,73
20.9750,63
21.1608,87
21.3465,189
21.5323,77
21.7180,74
21.9038,78
22.0896,70
22.2753,86
22.4611,59
22.6468,65
22.8326,71
23.0183,65
23.2041,82
23.3898,77
23.5756,65
23.7614,67
23.9471,63
24.1329,74
24.3186,89
24.5044,78
24.6901,73
24.8759,76
25.0616,77
25.2474,67
25.4332,80
25.6189,74
25.8047,69
25.9904,73
26.1762,65
26.3619,75
26.5477,76
26.7335,58
26.9192,56
27.1050,70
27.2907,75
27.4765,78
27.6622,75
27.8480,85
28.0337,57
28.2195,60
28.4053,53
28.5910,58
28.7768,52
28.9625,59
29.1483,56
29.3340,51
29.5198,50
29.7055,64
29.8913,68
30.0771,56
30.2628,52
30.4486,96
30.6343,61
30.8201,50
31.0058,54
31.1916,44
31.3774,49
31.5631,54
31.7489,60
31.9346,56
32.1204,56
32.3061,47
32.4919,63
32.6776,45
32.8634,48
33.0492,38
33.2349,44
33.4207,49
33.6064,34
33.7922,52
33.9779,33
34.1637,42
34.3494,32
34.5352,43
34.7210,58
34.9067,39
35.0925,41
35.2782,29
35.4640,37
35.6497,30
35.8355,37
36.0213,31
36.2070,41
36.3928,31
36.5785,30
36.7643,30
36.9500,30
37.1358,39
37.3215,42
37.5073,57
37.6931,39
37.8788,30
38.0646,31
38.2503,37
38.4361,29
38.6218,20
38.8076,36
38.9933,22
39.1791,37
39.3649,35
39.5506,34
39.7364,26
39.9221,22
40.1079,26
40.2936,27
40.4794,36
40.6652,22
40.8509,38
41.0367,29
41.2224,30
41.4082,28
41.5939,26
41.7797,29
41.9654,22
42.1512,26
42.3370,27
42.5227,33
42.7085,22
42.8942,26
43.0800,26
43.2657,29
43.4515,37
43.6372,43
43.8230,27
44.0088,18
44.1945,30
44.3803,25
44.5660,28
44.7518,26
44.9375,33
45.1233,23
45.3091,25
45.4948,24
45.6806,26
45.8663,27
46.0521,18
46.2378,21
46.4236,26
46.6093,23
46.7951,33
46.9809,24
47.1666,30
47.3524,23
47.5381,20
47.7239,29
47.9096,25
48.0954,17
48.2811,21
48.4669,16
48.6527,27
48.8384,25
49.0242,19
49.2099,31
49.3957,27
49.5814,31
49.7672,24
49.9530,23
50.1387,24
50.3245,21
50.5102,23
50.6960,22
50.8817,12
51.0675,24
51.2532,25
51.4390,23
51.6248,24
51.8105,24
51.9963,19
52.1820,22
52.3678,16
52.5535,12
52.7393,15
52.9250,24
53.1108,26
53.2966,17
53.4823,18
53.6681,20
53.8538,27
54.0396,25
54.2253,25
54.4111,19
54.5969,27
54.7826,23
54.9684,23
55.1541,19
55.3399,25
55.5256,25
55.7114,22
55.8971,13
56.0829,24
56.2687,31
56.4544,17
56.6402,20
56.8259,21
57.0117,21
57.1974,18
57.3832,29
57.5689,18
57.7547,28
57.9405,19
58.1262,14
58.3120,13
58.4977,23
58.6835,19
58.8692,15
59.0550,12
59.2408,20
59.4265,20
59.6123,24
59.7980,9
59.9838,14
60.0024,20