File: notebooks/data/xrd_data/ML_20220718_52_SJD_4_LaB6-1min.csv
;,2THETA,
5.0000,88
5.1858,90
5.3715,88
5.5573,80
5.7430,72
5.9288,76
6.1145,60
6.3003,79
6.4860,60
6.6718,68
6.8576,50
7.0433,71
7.2291,57
7.4148,64
7.6006,51
7.7863,70
7.9721,60
8.1579,72
8.3436,80
8.5294,68
8.7151,85
8.9009,79
9.0866,84
9.2724,90
9.4581,88
9.6439,92
9.8297,85
10.0154,106
10.2012,81
10.3869,75
10.5727,88
10.7584,70
10.9442,80
11.1299,99
11.3157,89
11.5015,77
11.6872,95
11.8730,103
12.0587,75
12.2445,76
12.4302,67
12.6160,58
12.8018,77
12.9875,69
13.1733,86
13.3590,85
13.5448,69
13.7305,83
13.9163,68
14.1020,80
14.2878,66
14.4736,81
14.6593,56
14.8451,57
15.0308,71
15.2166,56
15.4023,61
15.5881,64
15.7738,64
15.9596,70
16.1454,54
16.3311,59
16.5169,56
16.7026,52
16.8884,66
17.0741,70
17.2599,67
17.4457,45
17.6314,64
17.8172,60
18.0029,65
18.1887,59
18.3744,62
18.5602,69
18.7459,58
18.9317,68
19.1175,60
19.3032,58
19.4890,61
19.6747,62
19.8605,66
20.0462,61
20.2320,73
20.4177,61
20.6035,59
20.7893,56
20.9750,98
21.1608,79
21.3465,187
21.5323,73
21.7180,78
21.9038,64
22.0896,68
22.2753,75
22.4611,66
22.6468,74
22.8326,81
23.0183,77
23.2041,63
23.3898,69
23.5756,70
23.7614,81
23.9471,64
24.1329,74
24.3186,86
24.5044,84
24.6901,72
24.8759,64
25.0616,60
25.2474,71
25.4332,70
25.6189,74
25.8047,61
25.9904,76
26.1762,63
26.3619,76
26.5477,69
26.7335,81
26.9192,68
27.1050,77
27.2907,78
27.4765,72
27.6622,72
27.8480,81
28.0337,78
28.2195,54
28.4053,50
28.5910,60
28.7768,73
28.9625,56
29.1483,47
29.3340,72
29.5198,58
29.7055,41
29.8913,64
30.0771,52
30.2628,64
30.4486,106
30.6343,56
30.8201,63
31.0058,67
31.1916,45
31.3774,49
31.5631,62
31.7489,43
31.9346,47
32.1204,43
32.3061,51
32.4919,51
32.6776,52
32.8634,51
33.0492,55
33.2349,50
33.4207,48
33.6064,53
33.7922,39
33.9779,36
34.1637,42
34.3494,42
34.5352,47
34.7210,57
34.9067,47
35.0925,43
35.2782,42
35.4640,40
35.6497,29
35.8355,41
36.0213,40
36.2070,42
36.3928,38
36.5785,40
36.7643,29
36.9500,34
37.1358,34
37.3215,32
37.5073,38
37.6931,34
37.8788,36
38.0646,31
38.2503,26
38.4361,23
38.6218,31
38.8076,37
38.9933,36
39.1791,38
39.3649,32
39.5506,23
39.7364,23
39.9221,28
40.1079,30
40.2936,28
40.4794,33
40.6652,26
40.8509,41
41.0367,38
41.2224,28
41.4082,27
41.5939,27
41.7797,25
41.9654,25
42.1512,26
42.3370,29
42.5227,31
42.7085,26
42.8942,18
43.0800,28
43.2657,20
43.4515,34
43.6372,42
43.8230,41
44.0088,24
44.1945,23
44.3803,34
44.5660,32
44.7518,25
44.9375,19
45.1233,36
45.3091,28
45.4948,21
45.6806,22
45.8663,24
46.0521,27
46.2378,20
46.4236,22
46.6093,27
46.7951,20
46.9809,31
47.1666,23
47.3524,27
47.5381,21
47.7239,27
47.9096,20
48.0954,27
48.2811,16
48.4669,19
48.6527,23
48.8384,23
49.0242,20
49.2099,27
49.3957,29
49.5814,18
49.7672,27
49.9530,13
50.1387,20
50.3245,20
50.5102,22
50.6960,24
50.8817,16
51.0675,15
51.2532,29
51.4390,21
51.6248,23
51.8105,22
51.9963,35
52.1820,35
52.3678,15
52.5535,21
52.7393,21
52.9250,9
53.1108,23
53.2966,14
53.4823,25
53.6681,27
53.8538,21
54.0396,20
54.2253,18
54.4111,30
54.5969,14
54.7826,27
54.9684,26
55.1541,20
55.3399,20
55.5256,15
55.7114,13
55.8971,20
56.0829,24
56.2687,29
56.4544,23
56.6402,19
56.8259,24
57.0117,26
57.1974,19
57.3832,17
57.5689,13
57.7547,24
57.9405,21
58.1262,21
58.3120,28
58.4977,14
58.6835,27
58.8692,17
59.0550,21
59.2408,17
59.4265,22
59.6123,17
59.7980,22
59.9838,17
60.0024,21