File: notebooks/data/xrd_data/ML_20220721_12_SJD_4_LaB6-4min.csv
;,2THETA,
5.0000,262
5.1858,243
5.3715,239
5.5573,224
5.7430,232
5.9288,198
6.1145,212
6.3003,167
6.4860,186
6.6718,182
6.8576,157
7.0433,167
7.2291,141
7.4148,151
7.6006,164
7.7863,181
7.9721,183
8.1579,188
8.3436,213
8.5294,207
8.7151,212
8.9009,224
9.0866,220
9.2724,219
9.4581,224
9.6439,234
9.8297,229
10.0154,231
10.2012,265
10.3869,253
10.5727,249
10.7584,230
10.9442,236
11.1299,272
11.3157,249
11.5015,229
11.6872,245
11.8730,237
12.0587,241
12.2445,225
12.4302,247
12.6160,209
12.8018,202
12.9875,218
13.1733,187
13.3590,186
13.5448,187
13.7305,207
13.9163,211
14.1020,173
14.2878,187
14.4736,184
14.6593,163
14.8451,190
15.0308,151
15.2166,181
15.4023,150
15.5881,168
15.7738,146
15.9596,157
16.1454,157
16.3311,174
16.5169,178
16.7026,156
16.8884,170
17.0741,180
17.2599,189
17.4457,179
17.6314,184
17.8172,178
18.0029,185
18.1887,164
18.3744,168
18.5602,177
18.7459,176
18.9317,162
19.1175,176
19.3032,191
19.4890,187
19.6747,197
19.8605,186
20.0462,170
20.2320,191
20.4177,190
20.6035,189
20.7893,216
20.9750,175
21.1608,217
21.3465,517
21.5323,227
21.7180,201
21.9038,185
22.0896,193
22.2753,203
22.4611,173
22.6468,177
22.8326,189
23.0183,198
23.2041,183
23.3898,185
23.5756,214
23.7614,208
23.9471,183
24.1329,202
24.3186,224
24.5044,192
24.6901,206
24.8759,228
25.0616,174
25.2474,207
25.4332,180
25.6189,204
25.8047,177
25.9904,216
26.1762,178
26.3619,170
26.5477,183
26.7335,186
26.9192,184
27.1050,207
27.2907,212
27.4765,169
27.6622,188
27.8480,200
28.0337,179
28.2195,173
28.4053,177
28.5910,154
28.7768,171
28.9625,178
29.1483,173
29.3340,167
29.5198,168
29.7055,172
29.8913,138
30.0771,153
30.2628,173
30.4486,213
30.6343,141
30.8201,151
31.0058,146
31.1916,133
31.3774,144
31.5631,137
31.7489,141
31.9346,140
32.1204,143
32.3061,125
32.4919,168
32.6776,138
32.8634,120
33.0492,120
33.2349,132
33.4207,118
33.6064,120
33.7922,108
33.9779,104
34.1637,101
34.3494,99
34.5352,116
34.7210,138
34.9067,129
35.0925,102
35.2782,91
35.4640,105
35.6497,100
35.8355,105
36.0213,97
36.2070,99
36.3928,99
36.5785,90
36.7643,104
36.9500,86
37.1358,97
37.3215,91
37.5073,101
37.6931,81
37.8788,84
38.0646,78
38.2503,79
38.4361,93
38.6218,82
38.8076,92
38.9933,78
39.1791,78
39.3649,85
39.5506,61
39.7364,76
39.9221,81
40.1079,84
40.2936,77
40.4794,72
40.6652,66
40.8509,75
41.0367,79
41.2224,60
41.4082,85
41.5939,71
41.7797,65
41.9654,70
42.1512,82
42.3370,77
42.5227,58
42.7085,59
42.8942,78
43.0800,80
43.2657,78
43.4515,72
43.6372,85
43.8230,68
44.0088,85
44.1945,80
44.3803,69
44.5660,94
44.7518,84
44.9375,73
45.1233,83
45.3091,66
45.4948,71
45.6806,69
45.8663,63
46.0521,91
46.2378,62
46.4236,59
46.6093,65
46.7951,62
46.9809,63
47.1666,63
47.3524,81
47.5381,53
47.7239,75
47.9096,56
48.0954,51
48.2811,67
48.4669,67
48.6527,54
48.8384,69
49.0242,77
49.2099,79
49.3957,73
49.5814,59
49.7672,54
49.9530,58
50.1387,58
50.3245,64
50.5102,61
50.6960,57
50.8817,66
51.0675,53
51.2532,66
51.4390,66
51.6248,62
51.8105,81
51.9963,76
52.1820,59
52.3678,53
52.5535,44
52.7393,52
52.9250,68
53.1108,54
53.2966,49
53.4823,46
53.6681,58
53.8538,51
54.0396,63
54.2253,63
54.4111,56
54.5969,64
54.7826,58
54.9684,55
55.1541,53
55.3399,58
55.5256,41
55.7114,59
55.8971,64
56.0829,58
56.2687,55
56.4544,83
56.6402,46
56.8259,62
57.0117,62
57.1974,61
57.3832,57
57.5689,55
57.7547,58
57.9405,47
58.1262,62
58.3120,55
58.4977,59
58.6835,60
58.8692,55
59.0550,59
59.2408,67
59.4265,55
59.6123,49
59.7980,54
59.9838,62
60.0024,55