File: notebooks/data/xrd_data/ML_20220718_18_SJD_4_LaB6-2min.csv
;,2THETA,
5.0000,139
5.1858,122
5.3715,121
5.5573,106
5.7430,105
5.9288,105
6.1145,90
6.3003,81
6.4860,85
6.6718,87
6.8576,78
7.0433,93
7.2291,79
7.4148,82
7.6006,85
7.7863,91
7.9721,101
8.1579,100
8.3436,99
8.5294,121
8.7151,96
8.9009,93
9.0866,92
9.2724,126
9.4581,100
9.6439,132
9.8297,115
10.0154,136
10.2012,91
10.3869,126
10.5727,127
10.7584,125
10.9442,125
11.1299,123
11.3157,114
11.5015,125
11.6872,123
11.8730,126
12.0587,111
12.2445,120
12.4302,119
12.6160,104
12.8018,109
12.9875,96
13.1733,107
13.3590,111
13.5448,94
13.7305,94
13.9163,103
14.1020,108
14.2878,75
14.4736,93
14.6593,62
14.8451,71
15.0308,87
15.2166,85
15.4023,83
15.5881,88
15.7738,82
15.9596,93
16.1454,74
16.3311,78
16.5169,86
16.7026,63
16.8884,76
17.0741,92
17.2599,82
17.4457,74
17.6314,62
17.8172,87
18.0029,70
18.1887,90
18.3744,74
18.5602,72
18.7459,92
18.9317,79
19.1175,77
19.3032,81
19.4890,95
19.6747,88
19.8605,97
20.0462,97
20.2320,95
20.4177,93
20.6035,102
20.7893,79
20.9750,101
21.1608,104
21.3465,240
21.5323,90
21.7180,98
21.9038,93
22.0896,99
22.2753,90
22.4611,98
22.6468,93
22.8326,96
23.0183,97
23.2041,101
23.3898,88
23.5756,91
23.7614,101
23.9471,102
24.1329,113
24.3186,109
24.5044,100
24.6901,108
24.8759,94
25.0616,91
25.2474,90
25.4332,76
25.6189,104
25.8047,99
25.9904,99
26.1762,86
26.3619,100
26.5477,92
26.7335,84
26.9192,95
27.1050,107
27.2907,114
27.4765,95
27.6622,92
27.8480,85
28.0337,71
28.2195,106
28.4053,91
28.5910,89
28.7768,83
28.9625,85
29.1483,88
29.3340,82
29.5198,69
29.7055,78
29.8913,80
30.0771,67
30.2628,84
30.4486,146
30.6343,65
30.8201,70
31.0058,86
31.1916,63
31.3774,77
31.5631,95
31.7489,78
31.9346,72
32.1204,75
32.3061,61
32.4919,85
32.6776,58
32.8634,54
33.0492,67
33.2349,73
33.4207,53
33.6064,49
33.7922,58
33.9779,64
34.1637,57
34.3494,67
34.5352,73
34.7210,63
34.9067,56
35.0925,55
35.2782,50
35.4640,54
35.6497,51
35.8355,48
36.0213,45
36.2070,41
36.3928,42
36.5785,40
36.7643,47
36.9500,55
37.1358,50
37.3215,47
37.5073,47
37.6931,51
37.8788,52
38.0646,49
38.2503,44
38.4361,41
38.6218,37
38.8076,41
38.9933,43
39.1791,40
39.3649,43
39.5506,37
39.7364,43
39.9221,37
40.1079,43
40.2936,41
40.4794,34
40.6652,30
40.8509,42
41.0367,39
41.2224,44
41.4082,37
41.5939,39
41.7797,42
41.9654,45
42.1512,38
42.3370,31
42.5227,38
42.7085,33
42.8942,41
43.0800,37
43.2657,37
43.4515,46
43.6372,44
43.8230,39
44.0088,48
44.1945,33
44.3803,37
44.5660,44
44.7518,35
44.9375,41
45.1233,34
45.3091,36
45.4948,43
45.6806,39
45.8663,41
46.0521,30
46.2378,34
46.4236,25
46.6093,34
46.7951,33
46.9809,34
47.1666,27
47.3524,24
47.5381,23
47.7239,30
47.9096,27
48.0954,37
48.2811,32
48.4669,25
48.6527,31
48.8384,31
49.0242,42
49.2099,24
49.3957,32
49.5814,37
49.7672,31
49.9530,28
50.1387,31
50.3245,35
50.5102,34
50.6960,33
50.8817,37
51.0675,19
51.2532,30
51.4390,40
51.6248,31
51.8105,28
51.9963,29
52.1820,27
52.3678,30
52.5535,28
52.7393,25
52.9250,36
53.1108,22
53.2966,31
53.4823,28
53.6681,45
53.8538,25
54.0396,30
54.2253,20
54.4111,30
54.5969,25
54.7826,22
54.9684,24
55.1541,31
55.3399,22
55.5256,31
55.7114,26
55.8971,28
56.0829,33
56.2687,32
56.4544,21
56.6402,30
56.8259,23
57.0117,26
57.1974,25
57.3832,27
57.5689,36
57.7547,22
57.9405,26
58.1262,30
58.3120,27
58.4977,36
58.6835,26
58.8692,22
59.0550,21
59.2408,19
59.4265,39
59.6123,31
59.7980,24
59.9838,27
60.0024,28