File: notebooks/data/xrd_data/ML_20220718_46_SJD_4_LaB6-1min.csv
;,2THETA,
5.0000,93
5.1858,103
5.3715,80
5.5573,78
5.7430,77
5.9288,81
6.1145,60
6.3003,77
6.4860,59
6.6718,51
6.8576,71
7.0433,63
7.2291,70
7.4148,60
7.6006,53
7.7863,65
7.9721,70
8.1579,65
8.3436,66
8.5294,68
8.7151,73
8.9009,88
9.0866,67
9.2724,67
9.4581,88
9.6439,75
9.8297,75
10.0154,96
10.2012,93
10.3869,100
10.5727,85
10.7584,81
10.9442,68
11.1299,71
11.3157,84
11.5015,99
11.6872,87
11.8730,78
12.0587,81
12.2445,81
12.4302,78
12.6160,90
12.8018,85
12.9875,95
13.1733,77
13.3590,70
13.5448,63
13.7305,49
13.9163,89
14.1020,68
14.2878,74
14.4736,62
14.6593,55
14.8451,58
15.0308,55
15.2166,56
15.4023,56
15.5881,60
15.7738,56
15.9596,65
16.1454,55
16.3311,58
16.5169,60
16.7026,70
16.8884,58
17.0741,57
17.2599,56
17.4457,54
17.6314,61
17.8172,66
18.0029,60
18.1887,65
18.3744,70
18.5602,48
18.7459,74
18.9317,53
19.1175,60
19.3032,59
19.4890,65
19.6747,61
19.8605,60
20.0462,82
20.2320,73
20.4177,69
20.6035,64
20.7893,69
20.9750,76
21.1608,97
21.3465,192
21.5323,81
21.7180,71
21.9038,76
22.0896,68
22.2753,61
22.4611,90
22.6468,72
22.8326,78
23.0183,65
23.2041,73
23.3898,71
23.5756,77
23.7614,77
23.9471,73
24.1329,84
24.3186,77
24.5044,80
24.6901,69
24.8759,78
25.0616,80
25.2474,78
25.4332,74
25.6189,78
25.8047,70
25.9904,65
26.1762,67
26.3619,75
26.5477,76
26.7335,65
26.9192,74
27.1050,75
27.2907,77
27.4765,75
27.6622,64
27.8480,67
28.0337,70
28.2195,64
28.4053,59
28.5910,53
28.7768,81
28.9625,55
29.1483,57
29.3340,62
29.5198,57
29.7055,50
29.8913,48
30.0771,45
30.2628,63
30.4486,86
30.6343,58
30.8201,59
31.0058,63
31.1916,52
31.3774,51
31.5631,46
31.7489,57
31.9346,50
32.1204,43
32.3061,54
32.4919,49
32.6776,44
32.8634,43
33.0492,38
33.2349,43
33.4207,44
33.6064,49
33.7922,54
33.9779,39
34.1637,51
34.3494,39
34.5352,51
34.7210,51
34.9067,44
35.0925,49
35.2782,26
35.4640,35
35.6497,37
35.8355,37
36.0213,32
36.2070,38
36.3928,42
36.5785,38
36.7643,40
36.9500,41
37.1358,42
37.3215,37
37.5073,56
37.6931,30
37.8788,25
38.0646,44
38.2503,32
38.4361,26
38.6218,28
38.8076,46
38.9933,24
39.1791,27
39.3649,26
39.5506,24
39.7364,29
39.9221,35
40.1079,24
40.2936,32
40.4794,20
40.6652,25
40.8509,33
41.0367,27
41.2224,25
41.4082,25
41.5939,21
41.7797,22
41.9654,35
42.1512,27
42.3370,29
42.5227,27
42.7085,28
42.8942,26
43.0800,31
43.2657,36
43.4515,41
43.6372,34
43.8230,23
44.0088,20
44.1945,25
44.3803,31
44.5660,27
44.7518,24
44.9375,24
45.1233,30
45.3091,27
45.4948,28
45.6806,30
45.8663,17
46.0521,21
46.2378,14
46.4236,20
46.6093,23
46.7951,22
46.9809,18
47.1666,23
47.3524,26
47.5381,14
47.7239,37
47.9096,18
48.0954,17
48.2811,21
48.4669,25
48.6527,16
48.8384,24
49.0242,32
49.2099,28
49.3957,29
49.5814,23
49.7672,25
49.9530,18
50.1387,23
50.3245,20
50.5102,21
50.6960,20
50.8817,16
51.0675,23
51.2532,27
51.4390,25
51.6248,16
51.8105,21
51.9963,20
52.1820,18
52.3678,25
52.5535,21
52.7393,18
52.9250,17
53.1108,15
53.2966,16
53.4823,16
53.6681,30
53.8538,22
54.0396,22
54.2253,27
54.4111,23
54.5969,21
54.7826,14
54.9684,13
55.1541,25
55.3399,20
55.5256,12
55.7114,20
55.8971,21
56.0829,18
56.2687,20
56.4544,16
56.6402,26
56.8259,12
57.0117,24
57.1974,16
57.3832,17
57.5689,25
57.7547,17
57.9405,15
58.1262,17
58.3120,27
58.4977,23
58.6835,24
58.8692,16
59.0550,24
59.2408,24
59.4265,20
59.6123,23
59.7980,22
59.9838,19
60.0024,21