File: notebooks/data/xrd_data/ML_20220720_28_SJD_4_LaB6-1min.csv
;,2THETA,
5.0000,112
5.1858,77
5.3715,107
5.5573,81
5.7430,74
5.9288,76
6.1145,76
6.3003,71
6.4860,54
6.6718,60
6.8576,57
7.0433,61
7.2291,57
7.4148,52
7.6006,66
7.7863,71
7.9721,63
8.1579,60
8.3436,83
8.5294,68
8.7151,78
8.9009,79
9.0866,71
9.2724,97
9.4581,75
9.6439,68
9.8297,77
10.0154,91
10.2012,90
10.3869,77
10.5727,90
10.7584,87
10.9442,84
11.1299,81
11.3157,78
11.5015,95
11.6872,77
11.8730,104
12.0587,79
12.2445,79
12.4302,74
12.6160,95
12.8018,87
12.9875,75
13.1733,86
13.3590,75
13.5448,68
13.7305,71
13.9163,81
14.1020,67
14.2878,59
14.4736,66
14.6593,66
14.8451,76
15.0308,67
15.2166,58
15.4023,66
15.5881,56
15.7738,44
15.9596,62
16.1454,61
16.3311,68
16.5169,58
16.7026,52
16.8884,51
17.0741,63
17.2599,76
17.4457,69
17.6314,67
17.8172,57
18.0029,68
18.1887,55
18.3744,69
18.5602,59
18.7459,58
18.9317,57
19.1175,67
19.3032,71
19.4890,74
19.6747,64
19.8605,80
20.0462,71
20.2320,63
20.4177,72
20.6035,69
20.7893,69
20.9750,73
21.1608,92
21.3465,155
21.5323,64
21.7180,84
21.9038,61
22.0896,84
22.2753,82
22.4611,69
22.6468,70
22.8326,69
23.0183,71
23.2041,75
23.3898,80
23.5756,78
23.7614,66
23.9471,79
24.1329,73
24.3186,87
24.5044,80
24.6901,78
24.8759,65
25.0616,70
25.2474,76
25.4332,81
25.6189,74
25.8047,80
25.9904,53
26.1762,73
26.3619,63
26.5477,74
26.7335,63
26.9192,70
27.1050,71
27.2907,93
27.4765,59
27.6622,62
27.8480,69
28.0337,57
28.2195,68
28.4053,61
28.5910,72
28.7768,68
28.9625,58
29.1483,50
29.3340,59
29.5198,62
29.7055,58
29.8913,61
30.0771,45
30.2628,60
30.4486,89
30.6343,58
30.8201,45
31.0058,50
31.1916,64
31.3774,47
31.5631,42
31.7489,34
31.9346,41
32.1204,39
32.3061,48
32.4919,45
32.6776,48
32.8634,55
33.0492,33
33.2349,36
33.4207,46
33.6064,42
33.7922,43
33.9779,49
34.1637,53
34.3494,44
34.5352,47
34.7210,57
34.9067,53
35.0925,39
35.2782,40
35.4640,53
35.6497,31
35.8355,31
36.0213,33
36.2070,38
36.3928,32
36.5785,36
36.7643,26
36.9500,34
37.1358,47
37.3215,34
37.5073,40
37.6931,34
37.8788,28
38.0646,29
38.2503,29
38.4361,39
38.6218,34
38.8076,25
38.9933,37
39.1791,29
39.3649,34
39.5506,28
39.7364,23
39.9221,32
40.1079,37
40.2936,22
40.4794,27
40.6652,23
40.8509,32
41.0367,25
41.2224,27
41.4082,25
41.5939,32
41.7797,39
41.9654,27
42.1512,31
42.3370,27
42.5227,30
42.7085,30
42.8942,30
43.0800,32
43.2657,33
43.4515,39
43.6372,18
43.8230,33
44.0088,22
44.1945,29
44.3803,12
44.5660,37
44.7518,31
44.9375,23
45.1233,22
45.3091,24
45.4948,27
45.6806,28
45.8663,22
46.0521,24
46.2378,27
46.4236,18
46.6093,21
46.7951,21
46.9809,22
47.1666,34
47.3524,27
47.5381,24
47.7239,14
47.9096,16
48.0954,24
48.2811,18
48.4669,21
48.6527,26
48.8384,24
49.0242,27
49.2099,27
49.3957,20
49.5814,27
49.7672,23
49.9530,26
50.1387,26
50.3245,24
50.5102,24
50.6960,21
50.8817,15
51.0675,23
51.2532,18
51.4390,27
51.6248,23
51.8105,22
51.9963,18
52.1820,14
52.3678,16
52.5535,26
52.7393,25
52.9250,16
53.1108,17
53.2966,23
53.4823,21
53.6681,19
53.8538,25
54.0396,33
54.2253,19
54.4111,16
54.5969,16
54.7826,29
54.9684,25
55.1541,23
55.3399,29
55.5256,19
55.7114,26
55.8971,21
56.0829,23
56.2687,19
56.4544,24
56.6402,18
56.8259,19
57.0117,24
57.1974,21
57.3832,17
57.5689,22
57.7547,23
57.9405,21
58.1262,13
58.3120,25
58.4977,32
58.6835,24
58.8692,23
59.0550,19
59.2408,24
59.4265,18
59.6123,22
59.7980,20
59.9838,21
60.0024,27