File: notebooks/data/xrd_data/ML_20220718_37_SJD_4_LaB6-2min.csv
;,2THETA,
5.0000,140
5.1858,115
5.3715,105
5.5573,112
5.7430,115
5.9288,78
6.1145,83
6.3003,95
6.4860,88
6.6718,86
6.8576,77
7.0433,66
7.2291,71
7.4148,77
7.6006,82
7.7863,88
7.9721,99
8.1579,108
8.3436,101
8.5294,116
8.7151,88
8.9009,104
9.0866,109
9.2724,104
9.4581,119
9.6439,109
9.8297,115
10.0154,103
10.2012,117
10.3869,128
10.5727,123
10.7584,107
10.9442,119
11.1299,112
11.3157,104
11.5015,123
11.6872,94
11.8730,139
12.0587,119
12.2445,114
12.4302,103
12.6160,90
12.8018,107
12.9875,98
13.1733,83
13.3590,97
13.5448,91
13.7305,83
13.9163,81
14.1020,94
14.2878,101
14.4736,89
14.6593,92
14.8451,78
15.0308,67
15.2166,86
15.4023,90
15.5881,67
15.7738,78
15.9596,72
16.1454,91
16.3311,71
16.5169,64
16.7026,95
16.8884,83
17.0741,75
17.2599,82
17.4457,65
17.6314,77
17.8172,74
18.0029,94
18.1887,77
18.3744,64
18.5602,65
18.7459,80
18.9317,84
19.1175,88
19.3032,93
19.4890,82
19.6747,100
19.8605,72
20.0462,80
20.2320,87
20.4177,72
20.6035,98
20.7893,119
20.9750,98
21.1608,117
21.3465,227
21.5323,117
21.7180,85
21.9038,97
22.0896,92
22.2753,86
22.4611,84
22.6468,82
22.8326,100
23.0183,105
23.2041,104
23.3898,105
23.5756,126
23.7614,98
23.9471,99
24.1329,102
24.3186,108
24.5044,106
24.6901,112
24.8759,80
25.0616,88
25.2474,101
25.4332,92
25.6189,90
25.8047,95
25.9904,98
26.1762,94
26.3619,80
26.5477,100
26.7335,86
26.9192,87
27.1050,86
27.2907,104
27.4765,89
27.6622,71
27.8480,82
28.0337,77
28.2195,104
28.4053,76
28.5910,70
28.7768,85
28.9625,78
29.1483,80
29.3340,65
29.5198,83
29.7055,87
29.8913,70
30.0771,78
30.2628,83
30.4486,108
30.6343,86
30.8201,73
31.0058,75
31.1916,55
31.3774,71
31.5631,60
31.7489,77
31.9346,79
32.1204,58
32.3061,67
32.4919,76
32.6776,60
32.8634,60
33.0492,66
33.2349,63
33.4207,56
33.6064,63
33.7922,47
33.9779,58
34.1637,65
34.3494,69
34.5352,55
34.7210,57
34.9067,64
35.0925,60
35.2782,36
35.4640,48
35.6497,46
35.8355,47
36.0213,61
36.2070,62
36.3928,51
36.5785,44
36.7643,50
36.9500,41
37.1358,41
37.3215,50
37.5073,49
37.6931,47
37.8788,46
38.0646,44
38.2503,41
38.4361,41
38.6218,45
38.8076,44
38.9933,38
39.1791,34
39.3649,39
39.5506,36
39.7364,33
39.9221,32
40.1079,35
40.2936,38
40.4794,42
40.6652,46
40.8509,31
41.0367,38
41.2224,37
41.4082,32
41.5939,31
41.7797,37
41.9654,31
42.1512,41
42.3370,35
42.5227,41
42.7085,33
42.8942,37
43.0800,41
43.2657,39
43.4515,45
43.6372,39
43.8230,36
44.0088,26
44.1945,36
44.3803,35
44.5660,54
44.7518,32
44.9375,32
45.1233,34
45.3091,26
45.4948,33
45.6806,30
45.8663,28
46.0521,30
46.2378,33
46.4236,26
46.6093,25
46.7951,25
46.9809,28
47.1666,23
47.3524,27
47.5381,26
47.7239,31
47.9096,32
48.0954,31
48.2811,26
48.4669,26
48.6527,30
48.8384,31
49.0242,40
49.2099,31
49.3957,22
49.5814,27
49.7672,25
49.9530,25
50.1387,28
50.3245,32
50.5102,32
50.6960,26
50.8817,24
51.0675,23
51.2532,17
51.4390,42
51.6248,26
51.8105,33
51.9963,27
52.1820,34
52.3678,28
52.5535,31
52.7393,28
52.9250,28
53.1108,28
53.2966,35
53.4823,24
53.6681,24
53.8538,37
54.0396,21
54.2253,24
54.4111,26
54.5969,15
54.7826,21
54.9684,26
55.1541,21
55.3399,21
55.5256,21
55.7114,30
55.8971,31
56.0829,29
56.2687,34
56.4544,35
56.6402,32
56.8259,36
57.0117,31
57.1974,21
57.3832,24
57.5689,39
57.7547,30
57.9405,29
58.1262,26
58.3120,28
58.4977,23
58.6835,26
58.8692,34
59.0550,29
59.2408,25
59.4265,27
59.6123,30
59.7980,23
59.9838,21
60.0024,36