File: notebooks/data/xrd_data/ML_20220720_21_SJD_4_LaB6-1min.csv
;,2THETA,
5.0000,106
5.1858,74
5.3715,88
5.5573,77
5.7430,70
5.9288,75
6.1145,66
6.3003,66
6.4860,74
6.6718,55
6.8576,53
7.0433,62
7.2291,67
7.4148,51
7.6006,63
7.7863,57
7.9721,59
8.1579,67
8.3436,72
8.5294,85
8.7151,76
8.9009,80
9.0866,81
9.2724,79
9.4581,86
9.6439,86
9.8297,75
10.0154,95
10.2012,94
10.3869,74
10.5727,116
10.7584,76
10.9442,79
11.1299,81
11.3157,91
11.5015,95
11.6872,87
11.8730,84
12.0587,79
12.2445,81
12.4302,83
12.6160,75
12.8018,86
12.9875,69
13.1733,76
13.3590,77
13.5448,79
13.7305,62
13.9163,82
14.1020,69
14.2878,68
14.4736,58
14.6593,68
14.8451,65
15.0308,53
15.2166,69
15.4023,57
15.5881,58
15.7738,50
15.9596,59
16.1454,45
16.3311,50
16.5169,57
16.7026,62
16.8884,67
17.0741,57
17.2599,64
17.4457,48
17.6314,65
17.8172,61
18.0029,54
18.1887,50
18.3744,62
18.5602,75
18.7459,67
18.9317,74
19.1175,66
19.3032,55
19.4890,73
19.6747,70
19.8605,77
20.0462,62
20.2320,78
20.4177,68
20.6035,72
20.7893,67
20.9750,79
21.1608,71
21.3465,176
21.5323,65
21.7180,70
21.9038,70
22.0896,80
22.2753,89
22.4611,77
22.6468,86
22.8326,80
23.0183,61
23.2041,52
23.3898,55
23.5756,83
23.7614,66
23.9471,67
24.1329,74
24.3186,76
24.5044,86
24.6901,78
24.8759,85
25.0616,71
25.2474,67
25.4332,86
25.6189,60
25.8047,68
25.9904,81
26.1762,63
26.3619,59
26.5477,71
26.7335,89
26.9192,75
27.1050,67
27.2907,92
27.4765,54
27.6622,63
27.8480,56
28.0337,51
28.2195,53
28.4053,59
28.5910,65
28.7768,70
28.9625,72
29.1483,57
29.3340,57
29.5198,73
29.7055,70
29.8913,62
30.0771,53
30.2628,54
30.4486,98
30.6343,68
30.8201,60
31.0058,52
31.1916,54
31.3774,54
31.5631,55
31.7489,43
31.9346,50
32.1204,39
32.3061,40
32.4919,53
32.6776,55
32.8634,35
33.0492,55
33.2349,47
33.4207,35
33.6064,44
33.7922,39
33.9779,43
34.1637,47
34.3494,38
34.5352,31
34.7210,36
34.9067,55
35.0925,41
35.2782,37
35.4640,39
35.6497,30
35.8355,30
36.0213,39
36.2070,44
36.3928,30
36.5785,33
36.7643,32
36.9500,31
37.1358,28
37.3215,39
37.5073,47
37.6931,29
37.8788,40
38.0646,32
38.2503,33
38.4361,35
38.6218,33
38.8076,31
38.9933,33
39.1791,20
39.3649,39
39.5506,34
39.7364,31
39.9221,22
40.1079,31
40.2936,13
40.4794,31
40.6652,28
40.8509,36
41.0367,20
41.2224,24
41.4082,32
41.5939,24
41.7797,25
41.9654,34
42.1512,30
42.3370,24
42.5227,36
42.7085,25
42.8942,27
43.0800,37
43.2657,39
43.4515,28
43.6372,37
43.8230,27
44.0088,23
44.1945,22
44.3803,31
44.5660,35
44.7518,34
44.9375,21
45.1233,17
45.3091,22
45.4948,20
45.6806,24
45.8663,24
46.0521,19
46.2378,27
46.4236,17
46.6093,33
46.7951,21
46.9809,20
47.1666,27
47.3524,21
47.5381,21
47.7239,27
47.9096,22
48.0954,26
48.2811,22
48.4669,14
48.6527,14
48.8384,18
49.0242,26
49.2099,29
49.3957,19
49.5814,23
49.7672,26
49.9530,16
50.1387,16
50.3245,25
50.5102,24
50.6960,14
50.8817,30
51.0675,21
51.2532,19
51.4390,21
51.6248,22
51.8105,23
51.9963,22
52.1820,23
52.3678,17
52.5535,20
52.7393,24
52.9250,18
53.1108,26
53.2966,22
53.4823,21
53.6681,18
53.8538,24
54.0396,28
54.2253,28
54.4111,32
54.5969,19
54.7826,19
54.9684,19
55.1541,23
55.3399,22
55.5256,30
55.7114,25
55.8971,22
56.0829,19
56.2687,17
56.4544,16
56.6402,13
56.8259,20
57.0117,18
57.1974,19
57.3832,22
57.5689,19
57.7547,23
57.9405,16
58.1262,20
58.3120,23
58.4977,20
58.6835,13
58.8692,19
59.0550,20
59.2408,10
59.4265,20
59.6123,13
59.7980,15
59.9838,16
60.0024,21