File: notebooks/data/xrd_data/ML_20220718_12_SJD_4_LaB6-2min.csv
;,2THETA,
5.0000,126
5.1858,125
5.3715,147
5.5573,111
5.7430,124
5.9288,97
6.1145,100
6.3003,87
6.4860,98
6.6718,108
6.8576,83
7.0433,87
7.2291,74
7.4148,91
7.6006,91
7.7863,89
7.9721,91
8.1579,82
8.3436,103
8.5294,82
8.7151,93
8.9009,98
9.0866,99
9.2724,105
9.4581,117
9.6439,133
9.8297,134
10.0154,117
10.2012,115
10.3869,138
10.5727,130
10.7584,121
10.9442,108
11.1299,92
11.3157,119
11.5015,99
11.6872,95
11.8730,122
12.0587,116
12.2445,116
12.4302,130
12.6160,109
12.8018,98
12.9875,113
13.1733,96
13.3590,99
13.5448,97
13.7305,89
13.9163,97
14.1020,79
14.2878,87
14.4736,99
14.6593,74
14.8451,98
15.0308,80
15.2166,72
15.4023,81
15.5881,79
15.7738,85
15.9596,87
16.1454,78
16.3311,76
16.5169,81
16.7026,93
16.8884,89
17.0741,81
17.2599,99
17.4457,81
17.6314,81
17.8172,86
18.0029,71
18.1887,74
18.3744,89
18.5602,79
18.7459,91
18.9317,81
19.1175,91
19.3032,77
19.4890,80
19.6747,95
19.8605,90
20.0462,85
20.2320,77
20.4177,89
20.6035,101
20.7893,91
20.9750,94
21.1608,99
21.3465,242
21.5323,85
21.7180,73
21.9038,97
22.0896,96
22.2753,91
22.4611,122
22.6468,102
22.8326,103
23.0183,106
23.2041,114
23.3898,110
23.5756,89
23.7614,85
23.9471,87
24.1329,99
24.3186,96
24.5044,108
24.6901,119
24.8759,100
25.0616,87
25.2474,82
25.4332,99
25.6189,82
25.8047,96
25.9904,96
26.1762,89
26.3619,92
26.5477,95
26.7335,86
26.9192,89
27.1050,105
27.2907,115
27.4765,78
27.6622,86
27.8480,77
28.0337,78
28.2195,92
28.4053,92
28.5910,90
28.7768,73
28.9625,80
29.1483,88
29.3340,74
29.5198,73
29.7055,69
29.8913,72
30.0771,75
30.2628,71
30.4486,123
30.6343,72
30.8201,58
31.0058,74
31.1916,79
31.3774,65
31.5631,63
31.7489,84
31.9346,68
32.1204,54
32.3061,59
32.4919,70
32.6776,72
32.8634,72
33.0492,62
33.2349,60
33.4207,66
33.6064,59
33.7922,55
33.9779,60
34.1637,58
34.3494,54
34.5352,51
34.7210,86
34.9067,76
35.0925,59
35.2782,55
35.4640,46
35.6497,56
35.8355,44
36.0213,49
36.2070,61
36.3928,29
36.5785,42
36.7643,52
36.9500,48
37.1358,46
37.3215,48
37.5073,62
37.6931,43
37.8788,34
38.0646,48
38.2503,44
38.4361,31
38.6218,47
38.8076,44
38.9933,38
39.1791,29
39.3649,46
39.5506,36
39.7364,42
39.9221,42
40.1079,34
40.2936,35
40.4794,41
40.6652,41
40.8509,44
41.0367,35
41.2224,40
41.4082,45
41.5939,39
41.7797,26
41.9654,36
42.1512,38
42.3370,37
42.5227,34
42.7085,34
42.8942,34
43.0800,35
43.2657,42
43.4515,40
43.6372,53
43.8230,26
44.0088,36
44.1945,29
44.3803,27
44.5660,43
44.7518,50
44.9375,37
45.1233,34
45.3091,33
45.4948,38
45.6806,36
45.8663,31
46.0521,36
46.2378,26
46.4236,32
46.6093,34
46.7951,36
46.9809,46
47.1666,33
47.3524,36
47.5381,26
47.7239,47
47.9096,25
48.0954,28
48.2811,32
48.4669,28
48.6527,30
48.8384,39
49.0242,36
49.2099,28
49.3957,23
49.5814,30
49.7672,30
49.9530,38
50.1387,30
50.3245,26
50.5102,15
50.6960,27
50.8817,33
51.0675,31
51.2532,32
51.4390,37
51.6248,31
51.8105,26
51.9963,39
52.1820,22
52.3678,26
52.5535,28
52.7393,35
52.9250,32
53.1108,29
53.2966,34
53.4823,40
53.6681,33
53.8538,32
54.0396,30
54.2253,27
54.4111,41
54.5969,28
54.7826,20
54.9684,28
55.1541,28
55.3399,27
55.5256,26
55.7114,22
55.8971,30
56.0829,27
56.2687,33
56.4544,28
56.6402,32
56.8259,24
57.0117,18
57.1974,27
57.3832,21
57.5689,30
57.7547,30
57.9405,26
58.1262,22
58.3120,32
58.4977,26
58.6835,26
58.8692,23
59.0550,27
59.2408,32
59.4265,27
59.6123,27
59.7980,23
59.9838,27
60.0024,31