File: notebooks/data/xrd_data/ML_20220720_9_SJD_4_LaB6-4min.csv
;,2THETA,
5.0000,243
5.1858,290
5.3715,223
5.5573,220
5.7430,198
5.9288,188
6.1145,182
6.3003,185
6.4860,179
6.6718,161
6.8576,185
7.0433,167
7.2291,166
7.4148,180
7.6006,162
7.7863,190
7.9721,192
8.1579,210
8.3436,190
8.5294,210
8.7151,219
8.9009,209
9.0866,231
9.2724,218
9.4581,216
9.6439,233
9.8297,232
10.0154,262
10.2012,211
10.3869,217
10.5727,253
10.7584,252
10.9442,239
11.1299,227
11.3157,221
11.5015,248
11.6872,242
11.8730,243
12.0587,212
12.2445,214
12.4302,202
12.6160,214
12.8018,185
12.9875,218
13.1733,168
13.3590,196
13.5448,192
13.7305,186
13.9163,172
14.1020,169
14.2878,178
14.4736,169
14.6593,139
14.8451,188
15.0308,164
15.2166,193
15.4023,137
15.5881,152
15.7738,151
15.9596,147
16.1454,164
16.3311,192
16.5169,164
16.7026,155
16.8884,162
17.0741,155
17.2599,159
17.4457,155
17.6314,176
17.8172,174
18.0029,154
18.1887,163
18.3744,167
18.5602,205
18.7459,172
18.9317,160
19.1175,168
19.3032,203
19.4890,155
19.6747,148
19.8605,163
20.0462,205
20.2320,179
20.4177,193
20.6035,178
20.7893,204
20.9750,191
21.1608,205
21.3465,486
21.5323,199
21.7180,206
21.9038,207
22.0896,207
22.2753,197
22.4611,186
22.6468,204
22.8326,209
23.0183,210
23.2041,191
23.3898,164
23.5756,200
23.7614,199
23.9471,202
24.1329,206
24.3186,234
24.5044,215
24.6901,183
24.8759,220
25.0616,199
25.2474,193
25.4332,192
25.6189,190
25.8047,189
25.9904,171
26.1762,205
26.3619,192
26.5477,191
26.7335,189
26.9192,185
27.1050,237
27.2907,237
27.4765,165
27.6622,178
27.8480,191
28.0337,174
28.2195,171
28.4053,181
28.5910,184
28.7768,167
28.9625,158
29.1483,160
29.3340,170
29.5198,168
29.7055,149
29.8913,159
30.0771,143
30.2628,170
30.4486,258
30.6343,144
30.8201,142
31.0058,149
31.1916,142
31.3774,139
31.5631,127
31.7489,116
31.9346,128
32.1204,129
32.3061,142
32.4919,154
32.6776,131
32.8634,128
33.0492,140
33.2349,135
33.4207,111
33.6064,142
33.7922,105
33.9779,112
34.1637,105
34.3494,118
34.5352,131
34.7210,158
34.9067,157
35.0925,111
35.2782,96
35.4640,100
35.6497,107
35.8355,99
36.0213,108
36.2070,98
36.3928,89
36.5785,92
36.7643,102
36.9500,92
37.1358,102
37.3215,78
37.5073,107
37.6931,94
37.8788,85
38.0646,84
38.2503,75
38.4361,90
38.6218,83
38.8076,94
38.9933,93
39.1791,81
39.3649,64
39.5506,80
39.7364,84
39.9221,76
40.1079,75
40.2936,80
40.4794,78
40.6652,71
40.8509,83
41.0367,74
41.2224,65
41.4082,93
41.5939,65
41.7797,82
41.9654,71
42.1512,89
42.3370,86
42.5227,81
42.7085,73
42.8942,82
43.0800,74
43.2657,105
43.4515,85
43.6372,100
43.8230,68
44.0088,79
44.1945,74
44.3803,94
44.5660,78
44.7518,74
44.9375,71
45.1233,75
45.3091,67
45.4948,70
45.6806,71
45.8663,54
46.0521,77
46.2378,68
46.4236,81
46.6093,57
46.7951,75
46.9809,81
47.1666,54
47.3524,57
47.5381,71
47.7239,66
47.9096,70
48.0954,72
48.2811,70
48.4669,71
48.6527,62
48.8384,65
49.0242,72
49.2099,74
49.3957,69
49.5814,66
49.7672,69
49.9530,46
50.1387,72
50.3245,59
50.5102,71
50.6960,66
50.8817,52
51.0675,63
51.2532,42
51.4390,79
51.6248,68
51.8105,65
51.9963,70
52.1820,61
52.3678,49
52.5535,54
52.7393,53
52.9250,61
53.1108,56
53.2966,51
53.4823,53
53.6681,56
53.8538,67
54.0396,81
54.2253,61
54.4111,45
54.5969,62
54.7826,40
54.9684,60
55.1541,59
55.3399,58
55.5256,61
55.7114,63
55.8971,57
56.0829,51
56.2687,68
56.4544,54
56.6402,58
56.8259,69
57.0117,63
57.1974,57
57.3832,67
57.5689,52
57.7547,66
57.9405,42
58.1262,66
58.3120,51
58.4977,58
58.6835,63
58.8692,59
59.0550,60
59.2408,54
59.4265,51
59.6123,38
59.7980,63
59.9838,48
60.0024,50