File: notebooks/data/xrd_data/ML_20220721_22_SJD_4_LaB6-4min.csv
;,2THETA,
5.0000,278
5.1858,272
5.3715,235
5.5573,244
5.7430,197
5.9288,196
6.1145,203
6.3003,213
6.4860,188
6.6718,173
6.8576,175
7.0433,155
7.2291,165
7.4148,180
7.6006,181
7.7863,182
7.9721,179
8.1579,180
8.3436,197
8.5294,188
8.7151,203
8.9009,210
9.0866,212
9.2724,236
9.4581,243
9.6439,171
9.8297,236
10.0154,228
10.2012,238
10.3869,220
10.5727,236
10.7584,228
10.9442,229
11.1299,256
11.3157,256
11.5015,211
11.6872,236
11.8730,191
12.0587,232
12.2445,226
12.4302,231
12.6160,200
12.8018,213
12.9875,193
13.1733,209
13.3590,203
13.5448,182
13.7305,214
13.9163,188
14.1020,184
14.2878,162
14.4736,212
14.6593,197
14.8451,162
15.0308,170
15.2166,156
15.4023,158
15.5881,165
15.7738,154
15.9596,164
16.1454,169
16.3311,167
16.5169,159
16.7026,148
16.8884,150
17.0741,168
17.2599,153
17.4457,167
17.6314,168
17.8172,171
18.0029,156
18.1887,173
18.3744,172
18.5602,159
18.7459,168
18.9317,161
19.1175,158
19.3032,170
19.4890,167
19.6747,181
19.8605,165
20.0462,189
20.2320,165
20.4177,190
20.6035,175
20.7893,180
20.9750,181
21.1608,219
21.3465,499
21.5323,215
21.7180,175
21.9038,198
22.0896,198
22.2753,194
22.4611,187
22.6468,194
22.8326,213
23.0183,209
23.2041,186
23.3898,205
23.5756,197
23.7614,200
23.9471,212
24.1329,219
24.3186,230
24.5044,219
24.6901,216
24.8759,224
25.0616,197
25.2474,207
25.4332,222
25.6189,198
25.8047,206
25.9904,194
26.1762,177
26.3619,189
26.5477,195
26.7335,216
26.9192,190
27.1050,174
27.2907,210
27.4765,190
27.6622,185
27.8480,185
28.0337,186
28.2195,162
28.4053,147
28.5910,176
28.7768,175
28.9625,172
29.1483,169
29.3340,141
29.5198,166
29.7055,155
29.8913,182
30.0771,144
30.2628,152
30.4486,250
30.6343,135
30.8201,140
31.0058,141
31.1916,137
31.3774,126
31.5631,152
31.7489,138
31.9346,162
32.1204,127
32.3061,120
32.4919,160
32.6776,124
32.8634,139
33.0492,152
33.2349,132
33.4207,118
33.6064,128
33.7922,127
33.9779,115
34.1637,117
34.3494,108
34.5352,123
34.7210,146
34.9067,139
35.0925,91
35.2782,104
35.4640,99
35.6497,101
35.8355,91
36.0213,102
36.2070,84
36.3928,95
36.5785,79
36.7643,95
36.9500,82
37.1358,78
37.3215,77
37.5073,114
37.6931,81
37.8788,82
38.0646,85
38.2503,90
38.4361,100
38.6218,79
38.8076,78
38.9933,90
39.1791,79
39.3649,89
39.5506,90
39.7364,63
39.9221,100
40.1079,89
40.2936,60
40.4794,79
40.6652,78
40.8509,69
41.0367,78
41.2224,93
41.4082,88
41.5939,82
41.7797,70
41.9654,89
42.1512,74
42.3370,93
42.5227,74
42.7085,81
42.8942,70
43.0800,82
43.2657,97
43.4515,88
43.6372,104
43.8230,72
44.0088,68
44.1945,58
44.3803,92
44.5660,75
44.7518,70
44.9375,61
45.1233,81
45.3091,74
45.4948,75
45.6806,56
45.8663,60
46.0521,80
46.2378,54
46.4236,70
46.6093,69
46.7951,77
46.9809,78
47.1666,69
47.3524,63
47.5381,62
47.7239,59
47.9096,61
48.0954,60
48.2811,76
48.4669,54
48.6527,54
48.8384,75
49.0242,61
49.2099,69
49.3957,57
49.5814,49
49.7672,50
49.9530,68
50.1387,66
50.3245,65
50.5102,65
50.6960,55
50.8817,62
51.0675,46
51.2532,81
51.4390,63
51.6248,75
51.8105,67
51.9963,71
52.1820,62
52.3678,49
52.5535,56
52.7393,46
52.9250,69
53.1108,56
53.2966,55
53.4823,65
53.6681,63
53.8538,70
54.0396,66
54.2253,59
54.4111,55
54.5969,64
54.7826,72
54.9684,65
55.1541,54
55.3399,46
55.5256,46
55.7114,62
55.8971,61
56.0829,58
56.2687,62
56.4544,52
56.6402,48
56.8259,64
57.0117,53
57.1974,54
57.3832,49
57.5689,73
57.7547,41
57.9405,57
58.1262,52
58.3120,60
58.4977,49
58.6835,62
58.8692,70
59.0550,49
59.2408,57
59.4265,66
59.6123,42
59.7980,59
59.9838,49
60.0024,45