File: notebooks/data/xrd_data/ML_20220720_19_SJD_4_LaB6-1min.csv
;,2THETA,
5.0000,94
5.1858,94
5.3715,81
5.5573,71
5.7430,79
5.9288,85
6.1145,74
6.3003,72
6.4860,48
6.6718,77
6.8576,66
7.0433,66
7.2291,55
7.4148,67
7.6006,70
7.7863,56
7.9721,70
8.1579,64
8.3436,71
8.5294,65
8.7151,67
8.9009,77
9.0866,65
9.2724,77
9.4581,82
9.6439,76
9.8297,88
10.0154,79
10.2012,89
10.3869,89
10.5727,92
10.7584,81
10.9442,80
11.1299,74
11.3157,83
11.5015,95
11.6872,86
11.8730,95
12.0587,86
12.2445,90
12.4302,84
12.6160,91
12.8018,74
12.9875,67
13.1733,79
13.3590,66
13.5448,76
13.7305,57
13.9163,85
14.1020,68
14.2878,60
14.4736,62
14.6593,76
14.8451,53
15.0308,60
15.2166,54
15.4023,75
15.5881,71
15.7738,55
15.9596,67
16.1454,48
16.3311,68
16.5169,52
16.7026,55
16.8884,51
17.0741,60
17.2599,42
17.4457,51
17.6314,58
17.8172,81
18.0029,70
18.1887,60
18.3744,39
18.5602,59
18.7459,68
18.9317,67
19.1175,60
19.3032,78
19.4890,70
19.6747,65
19.8605,66
20.0462,68
20.2320,59
20.4177,55
20.6035,83
20.7893,70
20.9750,49
21.1608,91
21.3465,184
21.5323,81
21.7180,72
21.9038,63
22.0896,74
22.2753,66
22.4611,79
22.6468,76
22.8326,68
23.0183,64
23.2041,67
23.3898,76
23.5756,72
23.7614,72
23.9471,63
24.1329,79
24.3186,88
24.5044,68
24.6901,80
24.8759,73
25.0616,69
25.2474,65
25.4332,73
25.6189,63
25.8047,84
25.9904,77
26.1762,58
26.3619,64
26.5477,77
26.7335,59
26.9192,64
27.1050,77
27.2907,90
27.4765,65
27.6622,61
27.8480,56
28.0337,81
28.2195,57
28.4053,58
28.5910,74
28.7768,71
28.9625,50
29.1483,60
29.3340,49
29.5198,56
29.7055,54
29.8913,66
30.0771,52
30.2628,52
30.4486,99
30.6343,61
30.8201,74
31.0058,57
31.1916,56
31.3774,48
31.5631,54
31.7489,44
31.9346,51
32.1204,46
32.3061,46
32.4919,75
32.6776,50
32.8634,46
33.0492,46
33.2349,40
33.4207,49
33.6064,32
33.7922,37
33.9779,55
34.1637,29
34.3494,53
34.5352,42
34.7210,45
34.9067,34
35.0925,35
35.2782,41
35.4640,36
35.6497,49
35.8355,31
36.0213,35
36.2070,32
36.3928,42
36.5785,42
36.7643,30
36.9500,44
37.1358,42
37.3215,26
37.5073,44
37.6931,39
37.8788,29
38.0646,24
38.2503,33
38.4361,33
38.6218,29
38.8076,27
38.9933,32
39.1791,26
39.3649,24
39.5506,25
39.7364,30
39.9221,29
40.1079,31
40.2936,35
40.4794,28
40.6652,23
40.8509,26
41.0367,25
41.2224,27
41.4082,30
41.5939,26
41.7797,27
41.9654,31
42.1512,30
42.3370,31
42.5227,28
42.7085,26
42.8942,22
43.0800,30
43.2657,34
43.4515,25
43.6372,26
43.8230,31
44.0088,27
44.1945,20
44.3803,28
44.5660,27
44.7518,19
44.9375,26
45.1233,20
45.3091,27
45.4948,21
45.6806,20
45.8663,20
46.0521,19
46.2378,29
46.4236,24
46.6093,26
46.7951,21
46.9809,22
47.1666,19
47.3524,30
47.5381,18
47.7239,18
47.9096,16
48.0954,16
48.2811,20
48.4669,18
48.6527,20
48.8384,22
49.0242,30
49.2099,25
49.3957,22
49.5814,21
49.7672,23
49.9530,18
50.1387,23
50.3245,28
50.5102,21
50.6960,25
50.8817,26
51.0675,22
51.2532,26
51.4390,29
51.6248,23
51.8105,22
51.9963,32
52.1820,24
52.3678,21
52.5535,13
52.7393,28
52.9250,26
53.1108,23
53.2966,20
53.4823,22
53.6681,25
53.8538,28
54.0396,29
54.2253,19
54.4111,26
54.5969,24
54.7826,19
54.9684,23
55.1541,16
55.3399,23
55.5256,27
55.7114,20
55.8971,23
56.0829,16
56.2687,36
56.4544,13
56.6402,23
56.8259,20
57.0117,19
57.1974,22
57.3832,36
57.5689,16
57.7547,23
57.9405,22
58.1262,10
58.3120,19
58.4977,20
58.6835,15
58.8692,18
59.0550,23
59.2408,20
59.4265,25
59.6123,22
59.7980,14
59.9838,20
60.0024,24