File: notebooks/data/xrd_data/ML_20220718_53_SJD_4_LaB6-2min.uxd
; (content of file Y:\Sam\Apurva-07-20-2022\puck4\ML_20220718_53_SJD_4_LaB6-2min.raw)
_FILEVERSION = 3
_SAMPLE = ML_20220718_53_SJD_4_LaB6-2min
_+SAMPLE =
_SITE = USA
_USER = Administrator
_GONIOMETER_CODE = 20
; Goniometer : D8 theta/2theta, stage : Unknown
_ATTACHMENTS_CODE = 0
_GONIOMETER_RADIUS = 200.5
_FIXED_DIVSLIT = 0.6
_FIXED_SAMPLESLIT = 0
_SOLLER_SLITS = 2
_FIXED_DETSLIT = 9.55
_MONOCHROMATOR = 0
; Incident beam monochromator : None
_SOLLER_SLITS_2 = N
_THIN_FILM = N
_BETA_FILTER = Y
_FIXED_ANTISLIT = 5.89
_ANALYZER_CODE = 0
; Received beam analyzer : None
_DATEMEASURED = "26-Jul-2022 12:34:49"
_WL_UNIT = A
_WL1 = 1.5406
_WL2 = 1.54439
_WL3 = 1.39222
_WLRATIO = 0.5
_ANODE = Cu
_V4_INF_CREATOR = XRDWizard
_V4_INF_CREATOR_VERSION = V2.9.0.22
_V4_INF_WIZARD_VERSION = V2.9.0.22
_V4_INF_WIZARD_ADDINS = V2.9.0.22
_V4_INF_WIZARD_DOCTYPE = XRD
_V4_INF_OSUSER = McQueenLab
_V4_INF_USER = Administrator
_V4_INF_SITE = USA
_V4_INF_SAMPLEID = ML_20220718_53_SJD_4_LaB6-2min

; Data for range 1
_DRIVE = COUPLED
_STEPTIME = 5.64
_STEPSIZE = 0.0185756
_STEPMODE = C
_START = 5
_THETA = 2.5
_2THETA = 5
_KHI = 0
_PHI = 0
_X = 0
_Y = 0
_Z = 0
_DETECTOR = 5
; Detector type : Unknown
_DETECTORSLIT = unkn
_AUX1 = 0
_AUX2 = 0
_AUX3 = 0
_TIMESTARTED = 15
_TEMP_RATE = -1
_TEMP_DELAY = -1
_KV = 40
_MA = 40
_RANGE_WL = 1.5406
_3DPLANE = 0
_V4_ADDITIONALDETECTOR = 257
_V4_PSD2THETA = 3.373
_V4_PSDCHANNEL1 = 0
_V4_PSDAPERTURE = 12.68
_V4_PSDTYPE = 5
_V4_PSDFIXED = 0
_V4_COUNTERS_MASK = 4096
_V4_DRIVES_MASK = 0
_V4_ENCODERS_MASK = 0
_2THETACOUNTS = 1
; 2THETA  PSD
   5.0000        116
   5.1858        142
   5.3715        128
   5.5573        103
   5.7430        100
   5.9288         94
   6.1145         94
   6.3003         94
   6.4860         80
   6.6718         62
   6.8576         94
   7.0433         77
   7.2291         76
   7.4148         72
   7.6006         80
   7.7863        105
   7.9721        107
   8.1579         94
   8.3436         87
   8.5294         90
   8.7151         88
   8.9009        103
   9.0866        101
   9.2724        117
   9.4581         99
   9.6439        113
   9.8297        117
  10.0154        120
  10.2012        128
  10.3869        122
  10.5727        107
  10.7584        114
  10.9442        122
  11.1299         88
  11.3157        138
  11.5015        102
  11.6872        117
  11.8730        107
  12.0587        106
  12.2445        115
  12.4302        104
  12.6160        107
  12.8018         92
  12.9875        101
  13.1733        102
  13.3590         95
  13.5448         96
  13.7305         98
  13.9163        100
  14.1020         89
  14.2878         79
  14.4736         83
  14.6593         81
  14.8451        100
  15.0308         78
  15.2166         89
  15.4023         85
  15.5881         94
  15.7738         81
  15.9596         67
  16.1454         77
  16.3311         69
  16.5169         64
  16.7026         90
  16.8884         91
  17.0741         75
  17.2599         98
  17.4457         81
  17.6314         75
  17.8172         92
  18.0029         85
  18.1887         82
  18.3744         77
  18.5602         79
  18.7459         89
  18.9317         83
  19.1175         95
  19.3032         99
  19.4890         76
  19.6747         84
  19.8605         94
  20.0462         90
  20.2320         95
  20.4177        108
  20.6035         93
  20.7893         88
  20.9750         95
  21.1608        118
  21.3465        239
  21.5323        102
  21.7180         91
  21.9038         93
  22.0896        104
  22.2753         94
  22.4611        116
  22.6468         91
  22.8326         93
  23.0183        103
  23.2041         91
  23.3898         98
  23.5756         91
  23.7614         79
  23.9471         98
  24.1329        121
  24.3186        102
  24.5044         93
  24.6901        103
  24.8759         99
  25.0616         96
  25.2474        103
  25.4332         76
  25.6189         98
  25.8047         87
  25.9904         81
  26.1762        105
  26.3619         81
  26.5477         98
  26.7335         86
  26.9192         93
  27.1050         87
  27.2907        111
  27.4765         78
  27.6622         82
  27.8480         71
  28.0337         96
  28.2195         98
  28.4053         78
  28.5910         76
  28.7768         77
  28.9625         85
  29.1483         89
  29.3340         67
  29.5198         73
  29.7055         83
  29.8913         59
  30.0771         86
  30.2628         93
  30.4486        105
  30.6343         75
  30.8201         69
  31.0058         70
  31.1916         67
  31.3774         58
  31.5631         56
  31.7489         64
  31.9346         70
  32.1204         70
  32.3061         54
  32.4919         74
  32.6776         65
  32.8634         56
  33.0492         49
  33.2349         70
  33.4207         64
  33.6064         62
  33.7922         57
  33.9779         63
  34.1637         55
  34.3494         53
  34.5352         43
  34.7210         72
  34.9067         47
  35.0925         66
  35.2782         63
  35.4640         48
  35.6497         53
  35.8355         49
  36.0213         48
  36.2070         45
  36.3928         38
  36.5785         43
  36.7643         43
  36.9500         56
  37.1358         55
  37.3215         47
  37.5073         51
  37.6931         45
  37.8788         36
  38.0646         51
  38.2503         46
  38.4361         49
  38.6218         38
  38.8076         38
  38.9933         49
  39.1791         37
  39.3649         38
  39.5506         36
  39.7364         33
  39.9221         47
  40.1079         36
  40.2936         35
  40.4794         35
  40.6652         43
  40.8509         38
  41.0367         32
  41.2224         42
  41.4082         27
  41.5939         34
  41.7797         37
  41.9654         40
  42.1512         34
  42.3370         42
  42.5227         39
  42.7085         30
  42.8942         31
  43.0800         35
  43.2657         50
  43.4515         39
  43.6372         44
  43.8230         41
  44.0088         40
  44.1945         35
  44.3803         44
  44.5660         33
  44.7518         45
  44.9375         36
  45.1233         24
  45.3091         24
  45.4948         29
  45.6806         35
  45.8663         39
  46.0521         30
  46.2378         29
  46.4236         30
  46.6093         39
  46.7951         34
  46.9809         32
  47.1666         35
  47.3524         24
  47.5381         37
  47.7239         31
  47.9096         30
  48.0954         30
  48.2811         35
  48.4669         35
  48.6527         28
  48.8384         33
  49.0242         35
  49.2099         28
  49.3957         32
  49.5814         38
  49.7672         26
  49.9530         25
  50.1387         25
  50.3245         29
  50.5102         28
  50.6960         21
  50.8817         27
  51.0675         28
  51.2532         30
  51.4390         32
  51.6248         39
  51.8105         34
  51.9963         40
  52.1820         35
  52.3678         35
  52.5535         32
  52.7393         31
  52.9250         40
  53.1108         32
  53.2966         33
  53.4823         27
  53.6681         23
  53.8538         40
  54.0396         39
  54.2253         33
  54.4111         31
  54.5969         25
  54.7826         38
  54.9684         29
  55.1541         25
  55.3399         23
  55.5256         34
  55.7114         22
  55.8971         24
  56.0829         24
  56.2687         34
  56.4544         38
  56.6402         25
  56.8259         26
  57.0117         26
  57.1974         30
  57.3832         28
  57.5689         27
  57.7547         39
  57.9405         27
  58.1262         27
  58.3120         28
  58.4977         31
  58.6835         31
  58.8692         39
  59.0550         22
  59.2408         26
  59.4265         17
  59.6123         31
  59.7980         35
  59.9838         32
  60.0024         24