File: notebooks/data/xrd_data/ML_20220718_7_SJD_4_LaB6-2min.csv
;,2THETA,
5.0000,139
5.1858,113
5.3715,120
5.5573,121
5.7430,110
5.9288,95
6.1145,87
6.3003,103
6.4860,77
6.6718,88
6.8576,86
7.0433,101
7.2291,71
7.4148,79
7.6006,95
7.7863,91
7.9721,92
8.1579,80
8.3436,106
8.5294,103
8.7151,119
8.9009,105
9.0866,103
9.2724,106
9.4581,118
9.6439,110
9.8297,97
10.0154,134
10.2012,120
10.3869,99
10.5727,125
10.7584,126
10.9442,110
11.1299,121
11.3157,124
11.5015,112
11.6872,111
11.8730,119
12.0587,115
12.2445,119
12.4302,84
12.6160,103
12.8018,87
12.9875,103
13.1733,102
13.3590,112
13.5448,119
13.7305,79
13.9163,68
14.1020,102
14.2878,83
14.4736,84
14.6593,96
14.8451,79
15.0308,89
15.2166,71
15.4023,86
15.5881,76
15.7738,70
15.9596,76
16.1454,80
16.3311,69
16.5169,72
16.7026,89
16.8884,64
17.0741,90
17.2599,64
17.4457,72
17.6314,89
17.8172,78
18.0029,87
18.1887,89
18.3744,89
18.5602,79
18.7459,90
18.9317,81
19.1175,81
19.3032,71
19.4890,82
19.6747,91
19.8605,96
20.0462,93
20.2320,97
20.4177,79
20.6035,87
20.7893,92
20.9750,100
21.1608,112
21.3465,272
21.5323,108
21.7180,89
21.9038,83
22.0896,95
22.2753,105
22.4611,81
22.6468,92
22.8326,108
23.0183,104
23.2041,89
23.3898,97
23.5756,102
23.7614,90
23.9471,93
24.1329,114
24.3186,108
24.5044,115
24.6901,85
24.8759,101
25.0616,97
25.2474,105
25.4332,111
25.6189,94
25.8047,93
25.9904,95
26.1762,107
26.3619,100
26.5477,84
26.7335,101
26.9192,102
27.1050,93
27.2907,106
27.4765,89
27.6622,86
27.8480,96
28.0337,78
28.2195,81
28.4053,75
28.5910,95
28.7768,69
28.9625,82
29.1483,74
29.3340,88
29.5198,82
29.7055,93
29.8913,74
30.0771,71
30.2628,87
30.4486,107
30.6343,77
30.8201,86
31.0058,56
31.1916,71
31.3774,65
31.5631,82
31.7489,63
31.9346,69
32.1204,56
32.3061,68
32.4919,70
32.6776,55
32.8634,62
33.0492,62
33.2349,64
33.4207,61
33.6064,74
33.7922,56
33.9779,59
34.1637,58
34.3494,46
34.5352,58
34.7210,69
34.9067,64
35.0925,56
35.2782,41
35.4640,54
35.6497,40
35.8355,40
36.0213,39
36.2070,55
36.3928,44
36.5785,48
36.7643,44
36.9500,40
37.1358,49
37.3215,45
37.5073,62
37.6931,38
37.8788,47
38.0646,52
38.2503,49
38.4361,40
38.6218,39
38.8076,41
38.9933,51
39.1791,48
39.3649,32
39.5506,39
39.7364,42
39.9221,34
40.1079,42
40.2936,50
40.4794,36
40.6652,37
40.8509,38
41.0367,38
41.2224,28
41.4082,36
41.5939,40
41.7797,25
41.9654,37
42.1512,32
42.3370,36
42.5227,33
42.7085,31
42.8942,36
43.0800,35
43.2657,40
43.4515,43
43.6372,57
43.8230,51
44.0088,40
44.1945,32
44.3803,42
44.5660,44
44.7518,41
44.9375,36
45.1233,27
45.3091,30
45.4948,46
45.6806,37
45.8663,41
46.0521,27
46.2378,28
46.4236,37
46.6093,42
46.7951,26
46.9809,30
47.1666,36
47.3524,37
47.5381,30
47.7239,38
47.9096,21
48.0954,24
48.2811,36
48.4669,19
48.6527,35
48.8384,31
49.0242,45
49.2099,35
49.3957,28
49.5814,35
49.7672,32
49.9530,25
50.1387,30
50.3245,29
50.5102,26
50.6960,36
50.8817,29
51.0675,25
51.2532,30
51.4390,29
51.6248,30
51.8105,23
51.9963,26
52.1820,26
52.3678,24
52.5535,28
52.7393,32
52.9250,32
53.1108,28
53.2966,32
53.4823,24
53.6681,27
53.8538,30
54.0396,34
54.2253,28
54.4111,39
54.5969,19
54.7826,24
54.9684,22
55.1541,30
55.3399,16
55.5256,26
55.7114,28
55.8971,18
56.0829,29
56.2687,35
56.4544,26
56.6402,36
56.8259,30
57.0117,20
57.1974,25
57.3832,23
57.5689,26
57.7547,19
57.9405,32
58.1262,24
58.3120,24
58.4977,29
58.6835,22
58.8692,25
59.0550,21
59.2408,25
59.4265,27
59.6123,28
59.7980,26
59.9838,20
60.0024,32