File: notebooks/data/xrd_data/ML_20220720_33_SJD_4_LaB6-1min.uxd
; (content of file Y:\Sam\Apurva-07-20-2022\puck2\ML_20220720_33_SJD_0_LaB6-1min.raw)
_FILEVERSION = 3
_SAMPLE = ML_20220720_33_SJD_0_LaB6-1mi
_+SAMPLE =
_SITE = USA
_USER = Administrator
_GONIOMETER_CODE = 20
; Goniometer : D8 theta/2theta, stage : Unknown
_ATTACHMENTS_CODE = 0
_GONIOMETER_RADIUS = 200.5
_FIXED_DIVSLIT = 0.6
_FIXED_SAMPLESLIT = 0
_SOLLER_SLITS = 2
_FIXED_DETSLIT = 9.55
_MONOCHROMATOR = 0
; Incident beam monochromator : None
_SOLLER_SLITS_2 = N
_THIN_FILM = N
_BETA_FILTER = Y
_FIXED_ANTISLIT = 5.89
_ANALYZER_CODE = 0
; Received beam analyzer : None
_DATEMEASURED = "25-Jul-2022 18:48:00"
_WL_UNIT = A
_WL1 = 1.5406
_WL2 = 1.54439
_WL3 = 1.39222
_WLRATIO = 0.5
_ANODE = Cu
_V4_INF_CREATOR = XRDWizard
_V4_INF_CREATOR_VERSION = V2.9.0.22
_V4_INF_WIZARD_VERSION = V2.9.0.22
_V4_INF_WIZARD_ADDINS = V2.9.0.22
_V4_INF_WIZARD_DOCTYPE = XRD
_V4_INF_OSUSER = McQueenLab
_V4_INF_USER = Administrator
_V4_INF_SITE = USA
_V4_INF_SAMPLEID = ML_20220720_33_SJD_0_LaB6-1mi

; Data for range 1
_DRIVE = COUPLED
_STEPTIME = 4.23
_STEPSIZE = 0.0185756
_STEPMODE = C
_START = 5
_THETA = 2.5
_2THETA = 5
_KHI = 0
_PHI = 0
_X = 0
_Y = 0
_Z = 0
_DETECTOR = 5
; Detector type : Unknown
_DETECTORSLIT = unkn
_AUX1 = 0
_AUX2 = 0
_AUX3 = 0
_TIMESTARTED = 15
_TEMP_RATE = -1
_TEMP_DELAY = -1
_KV = 40
_MA = 40
_RANGE_WL = 1.5406
_3DPLANE = 0
_V4_ADDITIONALDETECTOR = 257
_V4_PSD2THETA = 3.3733
_V4_PSDCHANNEL1 = 0
_V4_PSDAPERTURE = 12.68
_V4_PSDTYPE = 5
_V4_PSDFIXED = 0
_V4_COUNTERS_MASK = 4096
_V4_DRIVES_MASK = 0
_V4_ENCODERS_MASK = 0
_2THETACOUNTS = 1
; 2THETA  PSD
   5.0000        115
   5.1858         94
   5.3715        100
   5.5573         78
   5.7430         75
   5.9288         74
   6.1145         60
   6.3003         69
   6.4860         53
   6.6718         72
   6.8576         57
   7.0433         61
   7.2291         65
   7.4148         57
   7.6006         64
   7.7863         57
   7.9721         74
   8.1579         65
   8.3436         74
   8.5294         63
   8.7151         79
   8.9009         78
   9.0866         79
   9.2724         63
   9.4581         85
   9.6439         75
   9.8297         97
  10.0154        101
  10.2012         83
  10.3869         89
  10.5727         85
  10.7584         96
  10.9442         85
  11.1299         90
  11.3157         76
  11.5015         79
  11.6872         78
  11.8730         86
  12.0587         80
  12.2445         90
  12.4302        100
  12.6160         69
  12.8018         75
  12.9875         84
  13.1733         71
  13.3590         76
  13.5448         80
  13.7305         78
  13.9163         72
  14.1020         71
  14.2878         60
  14.4736         56
  14.6593         69
  14.8451         56
  15.0308         52
  15.2166         61
  15.4023         57
  15.5881         50
  15.7738         65
  15.9596         55
  16.1454         63
  16.3311         60
  16.5169         60
  16.7026         69
  16.8884         66
  17.0741         57
  17.2599         64
  17.4457         74
  17.6314         54
  17.8172         65
  18.0029         69
  18.1887         61
  18.3744         62
  18.5602         65
  18.7459         63
  18.9317         69
  19.1175         64
  19.3032         62
  19.4890         61
  19.6747         70
  19.8605         48
  20.0462         59
  20.2320         66
  20.4177         75
  20.6035         73
  20.7893         59
  20.9750         55
  21.1608         85
  21.3465        181
  21.5323         77
  21.7180         81
  21.9038         69
  22.0896         80
  22.2753         63
  22.4611         65
  22.6468         85
  22.8326         69
  23.0183         68
  23.2041         65
  23.3898         71
  23.5756         72
  23.7614         78
  23.9471         84
  24.1329         64
  24.3186         82
  24.5044         73
  24.6901         73
  24.8759         66
  25.0616         71
  25.2474         74
  25.4332         53
  25.6189         78
  25.8047         65
  25.9904         76
  26.1762         69
  26.3619         80
  26.5477         68
  26.7335         66
  26.9192         77
  27.1050         71
  27.2907         83
  27.4765         72
  27.6622         67
  27.8480         68
  28.0337         49
  28.2195         66
  28.4053         59
  28.5910         56
  28.7768         73
  28.9625         65
  29.1483         66
  29.3340         65
  29.5198         50
  29.7055         66
  29.8913         59
  30.0771         55
  30.2628         76
  30.4486         94
  30.6343         59
  30.8201         50
  31.0058         54
  31.1916         41
  31.3774         50
  31.5631         40
  31.7489         57
  31.9346         46
  32.1204         74
  32.3061         40
  32.4919         63
  32.6776         66
  32.8634         60
  33.0492         38
  33.2349         45
  33.4207         29
  33.6064         37
  33.7922         27
  33.9779         41
  34.1637         37
  34.3494         62
  34.5352         46
  34.7210         46
  34.9067         56
  35.0925         40
  35.2782         45
  35.4640         46
  35.6497         37
  35.8355         51
  36.0213         42
  36.2070         33
  36.3928         46
  36.5785         34
  36.7643         39
  36.9500         26
  37.1358         30
  37.3215         29
  37.5073         37
  37.6931         34
  37.8788         40
  38.0646         27
  38.2503         27
  38.4361         35
  38.6218         38
  38.8076         36
  38.9933         27
  39.1791         24
  39.3649         37
  39.5506         24
  39.7364         28
  39.9221         22
  40.1079         29
  40.2936         27
  40.4794         26
  40.6652         35
  40.8509         24
  41.0367         29
  41.2224         25
  41.4082         21
  41.5939         30
  41.7797         27
  41.9654         25
  42.1512         26
  42.3370         28
  42.5227         40
  42.7085         34
  42.8942         16
  43.0800         23
  43.2657         32
  43.4515         25
  43.6372         31
  43.8230         27
  44.0088         30
  44.1945         22
  44.3803         30
  44.5660         38
  44.7518         29
  44.9375         19
  45.1233         29
  45.3091         16
  45.4948         22
  45.6806         28
  45.8663         26
  46.0521         22
  46.2378         23
  46.4236         29
  46.6093         23
  46.7951         17
  46.9809         29
  47.1666         20
  47.3524         32
  47.5381         30
  47.7239         24
  47.9096         21
  48.0954         24
  48.2811         19
  48.4669         31
  48.6527         18
  48.8384         17
  49.0242         35
  49.2099         26
  49.3957         21
  49.5814         17
  49.7672         19
  49.9530         26
  50.1387         23
  50.3245         18
  50.5102         23
  50.6960         23
  50.8817         26
  51.0675         23
  51.2532         30
  51.4390         25
  51.6248         17
  51.8105         20
  51.9963         26
  52.1820         20
  52.3678         19
  52.5535         13
  52.7393         17
  52.9250         24
  53.1108         16
  53.2966         25
  53.4823         24
  53.6681         19
  53.8538         18
  54.0396         32
  54.2253         21
  54.4111         22
  54.5969         21
  54.7826         23
  54.9684         18
  55.1541         27
  55.3399         22
  55.5256         15
  55.7114         23
  55.8971         17
  56.0829         24
  56.2687         23
  56.4544         16
  56.6402         23
  56.8259         28
  57.0117         26
  57.1974         17
  57.3832         16
  57.5689         24
  57.7547         16
  57.9405         17
  58.1262         19
  58.3120         19
  58.4977         21
  58.6835         22
  58.8692         21
  59.0550         19
  59.2408         18
  59.4265         21
  59.6123         13
  59.7980         22
  59.9838         14
  60.0024         17