File: notebooks/data/xrd_data/ML_20220721_28_SJD_4_LaB6-4min.csv
;,2THETA,
5.0000,257
5.1858,270
5.3715,246
5.5573,197
5.7430,198
5.9288,203
6.1145,208
6.3003,188
6.4860,171
6.6718,175
6.8576,203
7.0433,150
7.2291,172
7.4148,147
7.6006,198
7.7863,192
7.9721,198
8.1579,174
8.3436,176
8.5294,215
8.7151,219
8.9009,195
9.0866,204
9.2724,226
9.4581,216
9.6439,215
9.8297,232
10.0154,236
10.2012,257
10.3869,238
10.5727,233
10.7584,253
10.9442,233
11.1299,215
11.3157,209
11.5015,202
11.6872,223
11.8730,225
12.0587,214
12.2445,217
12.4302,231
12.6160,199
12.8018,225
12.9875,203
13.1733,201
13.3590,186
13.5448,188
13.7305,165
13.9163,192
14.1020,193
14.2878,156
14.4736,181
14.6593,169
14.8451,182
15.0308,209
15.2166,158
15.4023,175
15.5881,147
15.7738,158
15.9596,175
16.1454,149
16.3311,150
16.5169,150
16.7026,183
16.8884,183
17.0741,150
17.2599,152
17.4457,157
17.6314,164
17.8172,166
18.0029,156
18.1887,178
18.3744,164
18.5602,174
18.7459,175
18.9317,160
19.1175,158
19.3032,173
19.4890,166
19.6747,182
19.8605,180
20.0462,174
20.2320,183
20.4177,191
20.6035,177
20.7893,197
20.9750,184
21.1608,254
21.3465,496
21.5323,227
21.7180,206
21.9038,190
22.0896,208
22.2753,213
22.4611,204
22.6468,198
22.8326,190
23.0183,187
23.2041,182
23.3898,203
23.5756,165
23.7614,207
23.9471,196
24.1329,212
24.3186,236
24.5044,197
24.6901,212
24.8759,195
25.0616,219
25.2474,208
25.4332,175
25.6189,196
25.8047,189
25.9904,201
26.1762,188
26.3619,184
26.5477,171
26.7335,180
26.9192,186
27.1050,181
27.2907,200
27.4765,202
27.6622,181
27.8480,184
28.0337,174
28.2195,164
28.4053,183
28.5910,177
28.7768,161
28.9625,179
29.1483,158
29.3340,166
29.5198,151
29.7055,141
29.8913,166
30.0771,159
30.2628,157
30.4486,269
30.6343,172
30.8201,152
31.0058,135
31.1916,143
31.3774,145
31.5631,117
31.7489,136
31.9346,137
32.1204,143
32.3061,122
32.4919,160
32.6776,118
32.8634,89
33.0492,98
33.2349,117
33.4207,113
33.6064,122
33.7922,122
33.9779,120
34.1637,122
34.3494,104
34.5352,110
34.7210,143
34.9067,143
35.0925,110
35.2782,103
35.4640,97
35.6497,91
35.8355,100
36.0213,96
36.2070,102
36.3928,86
36.5785,89
36.7643,101
36.9500,92
37.1358,97
37.3215,84
37.5073,118
37.6931,79
37.8788,78
38.0646,89
38.2503,73
38.4361,88
38.6218,88
38.8076,92
38.9933,100
39.1791,69
39.3649,73
39.5506,83
39.7364,82
39.9221,70
40.1079,77
40.2936,87
40.4794,82
40.6652,88
40.8509,71
41.0367,88
41.2224,63
41.4082,74
41.5939,69
41.7797,89
41.9654,76
42.1512,79
42.3370,81
42.5227,61
42.7085,90
42.8942,62
43.0800,77
43.2657,79
43.4515,89
43.6372,104
43.8230,74
44.0088,62
44.1945,70
44.3803,74
44.5660,101
44.7518,67
44.9375,77
45.1233,65
45.3091,71
45.4948,60
45.6806,72
45.8663,78
46.0521,62
46.2378,71
46.4236,63
46.6093,60
46.7951,65
46.9809,67
47.1666,69
47.3524,74
47.5381,49
47.7239,69
47.9096,53
48.0954,72
48.2811,71
48.4669,59
48.6527,69
48.8384,67
49.0242,71
49.2099,59
49.3957,55
49.5814,59
49.7672,68
49.9530,57
50.1387,64
50.3245,73
50.5102,62
50.6960,64
50.8817,62
51.0675,57
51.2532,65
51.4390,73
51.6248,62
51.8105,67
51.9963,67
52.1820,62
52.3678,51
52.5535,50
52.7393,62
52.9250,61
53.1108,65
53.2966,52
53.4823,65
53.6681,64
53.8538,53
54.0396,63
54.2253,76
54.4111,51
54.5969,56
54.7826,65
54.9684,56
55.1541,54
55.3399,71
55.5256,51
55.7114,57
55.8971,45
56.0829,50
56.2687,63
56.4544,60
56.6402,44
56.8259,52
57.0117,57
57.1974,56
57.3832,48
57.5689,64
57.7547,46
57.9405,64
58.1262,67
58.3120,62
58.4977,56
58.6835,58
58.8692,66
59.0550,62
59.2408,43
59.4265,46
59.6123,54
59.7980,56
59.9838,49
60.0024,63