File: notebooks/data/xrd_data/ML_20220720_27_SJD_4_LaB6-1min.uxd
; (content of file Y:\Sam\Apurva-07-20-2022\puck2\ML_20220720_27_SJD_0_LaB6-1min.raw)
_FILEVERSION = 3
_SAMPLE = ML_20220720_27_SJD_0_LaB6-1min
_+SAMPLE =
_SITE = USA
_USER = Administrator
_GONIOMETER_CODE = 20
; Goniometer : D8 theta/2theta, stage : Unknown
_ATTACHMENTS_CODE = 0
_GONIOMETER_RADIUS = 200.5
_FIXED_DIVSLIT = 0.6
_FIXED_SAMPLESLIT = 0
_SOLLER_SLITS = 2
_FIXED_DETSLIT = 9.55
_MONOCHROMATOR = 0
; Incident beam monochromator : None
_SOLLER_SLITS_2 = N
_THIN_FILM = N
_BETA_FILTER = Y
_FIXED_ANTISLIT = 5.89
_ANALYZER_CODE = 0
; Received beam analyzer : None
_DATEMEASURED = "25-Jul-2022 18:36:47"
_WL_UNIT = A
_WL1 = 1.5406
_WL2 = 1.54439
_WL3 = 1.39222
_WLRATIO = 0.5
_ANODE = Cu
_V4_INF_CREATOR = XRDWizard
_V4_INF_CREATOR_VERSION = V2.9.0.22
_V4_INF_WIZARD_VERSION = V2.9.0.22
_V4_INF_WIZARD_ADDINS = V2.9.0.22
_V4_INF_WIZARD_DOCTYPE = XRD
_V4_INF_OSUSER = McQueenLab
_V4_INF_USER = Administrator
_V4_INF_SITE = USA
_V4_INF_SAMPLEID = ML_20220720_27_SJD_0_LaB6-1min

; Data for range 1
_DRIVE = COUPLED
_STEPTIME = 4.23
_STEPSIZE = 0.0185756
_STEPMODE = C
_START = 5
_THETA = 2.5
_2THETA = 5
_KHI = 0
_PHI = 0
_X = 0
_Y = 0
_Z = 0
_DETECTOR = 5
; Detector type : Unknown
_DETECTORSLIT = unkn
_AUX1 = 0
_AUX2 = 0
_AUX3 = 0
_TIMESTARTED = 16
_TEMP_RATE = -1
_TEMP_DELAY = -1
_KV = 40
_MA = 40
_RANGE_WL = 1.5406
_3DPLANE = 0
_V4_ADDITIONALDETECTOR = 257
_V4_PSD2THETA = 3.4374
_V4_PSDCHANNEL1 = 0
_V4_PSDAPERTURE = 12.68
_V4_PSDTYPE = 5
_V4_PSDFIXED = 0
_V4_COUNTERS_MASK = 4096
_V4_DRIVES_MASK = 0
_V4_ENCODERS_MASK = 0
_2THETACOUNTS = 1
; 2THETA  PSD
   5.0000         75
   5.1858         87
   5.3715         76
   5.5573         87
   5.7430         77
   5.9288         80
   6.1145         65
   6.3003         74
   6.4860         63
   6.6718         53
   6.8576         64
   7.0433         60
   7.2291         56
   7.4148         55
   7.6006         60
   7.7863         67
   7.9721         82
   8.1579         67
   8.3436         66
   8.5294         63
   8.7151         68
   8.9009         80
   9.0866         86
   9.2724         91
   9.4581        109
   9.6439         77
   9.8297         95
  10.0154         97
  10.2012         96
  10.3869         74
  10.5727         81
  10.7584         95
  10.9442         75
  11.1299         79
  11.3157         84
  11.5015         79
  11.6872         98
  11.8730         77
  12.0587         92
  12.2445         75
  12.4302         76
  12.6160         74
  12.8018         79
  12.9875         73
  13.1733         62
  13.3590         85
  13.5448         82
  13.7305         70
  13.9163         65
  14.1020         61
  14.2878         76
  14.4736         65
  14.6593         50
  14.8451         69
  15.0308         56
  15.2166         70
  15.4023         62
  15.5881         55
  15.7738         64
  15.9596         73
  16.1454         67
  16.3311         62
  16.5169         60
  16.7026         49
  16.8884         52
  17.0741         73
  17.2599         52
  17.4457         54
  17.6314         70
  17.8172         53
  18.0029         67
  18.1887         72
  18.3744         57
  18.5602         57
  18.7459         78
  18.9317         53
  19.1175         75
  19.3032         63
  19.4890         50
  19.6747         65
  19.8605         45
  20.0462         61
  20.2320         72
  20.4177         56
  20.6035         71
  20.7893         62
  20.9750         74
  21.1608         71
  21.3465        183
  21.5323         78
  21.7180         89
  21.9038         56
  22.0896         81
  22.2753         75
  22.4611         93
  22.6468         58
  22.8326         78
  23.0183         81
  23.2041         73
  23.3898         66
  23.5756         62
  23.7614         66
  23.9471         70
  24.1329         62
  24.3186         76
  24.5044         87
  24.6901         77
  24.8759         69
  25.0616         79
  25.2474         70
  25.4332         71
  25.6189         80
  25.8047         76
  25.9904         69
  26.1762         74
  26.3619         71
  26.5477         79
  26.7335         75
  26.9192         64
  27.1050         60
  27.2907         89
  27.4765         76
  27.6622         77
  27.8480         76
  28.0337         62
  28.2195         72
  28.4053         58
  28.5910         69
  28.7768         65
  28.9625         53
  29.1483         45
  29.3340         36
  29.5198         63
  29.7055         55
  29.8913         51
  30.0771         54
  30.2628         74
  30.4486         77
  30.6343         62
  30.8201         63
  31.0058         51
  31.1916         47
  31.3774         55
  31.5631         52
  31.7489         51
  31.9346         45
  32.1204         60
  32.3061         51
  32.4919         47
  32.6776         52
  32.8634         39
  33.0492         39
  33.2349         57
  33.4207         44
  33.6064         56
  33.7922         38
  33.9779         44
  34.1637         34
  34.3494         36
  34.5352         41
  34.7210         40
  34.9067         48
  35.0925         41
  35.2782         32
  35.4640         28
  35.6497         42
  35.8355         40
  36.0213         25
  36.2070         36
  36.3928         33
  36.5785         25
  36.7643         43
  36.9500         28
  37.1358         35
  37.3215         33
  37.5073         34
  37.6931         32
  37.8788         33
  38.0646         30
  38.2503         24
  38.4361         31
  38.6218         27
  38.8076         24
  38.9933         28
  39.1791         38
  39.3649         23
  39.5506         27
  39.7364         22
  39.9221         25
  40.1079         27
  40.2936         34
  40.4794         22
  40.6652         34
  40.8509         20
  41.0367         29
  41.2224         35
  41.4082         32
  41.5939         25
  41.7797         28
  41.9654         32
  42.1512         24
  42.3370         23
  42.5227         24
  42.7085         30
  42.8942         31
  43.0800         26
  43.2657         36
  43.4515         37
  43.6372         34
  43.8230         19
  44.0088         32
  44.1945         32
  44.3803         26
  44.5660         27
  44.7518         26
  44.9375         35
  45.1233         19
  45.3091         28
  45.4948         17
  45.6806         36
  45.8663         21
  46.0521         25
  46.2378         21
  46.4236         21
  46.6093         27
  46.7951         16
  46.9809         27
  47.1666         33
  47.3524         29
  47.5381         25
  47.7239         21
  47.9096         25
  48.0954         26
  48.2811         26
  48.4669         27
  48.6527         25
  48.8384         15
  49.0242         37
  49.2099         23
  49.3957         10
  49.5814         23
  49.7672         16
  49.9530         17
  50.1387         26
  50.3245         14
  50.5102         15
  50.6960         20
  50.8817         28
  51.0675         24
  51.2532         33
  51.4390         30
  51.6248         16
  51.8105         18
  51.9963         27
  52.1820         18
  52.3678         20
  52.5535         25
  52.7393         18
  52.9250         21
  53.1108         24
  53.2966         19
  53.4823         16
  53.6681         19
  53.8538         23
  54.0396         20
  54.2253         20
  54.4111         24
  54.5969         25
  54.7826         28
  54.9684         22
  55.1541         24
  55.3399         19
  55.5256         18
  55.7114         19
  55.8971         27
  56.0829         27
  56.2687         17
  56.4544         25
  56.6402         27
  56.8259         12
  57.0117         36
  57.1974         23
  57.3832         17
  57.5689         14
  57.7547         26
  57.9405         19
  58.1262         20
  58.3120         17
  58.4977         19
  58.6835         25
  58.8692         20
  59.0550         20
  59.2408         19
  59.4265         17
  59.6123         28
  59.7980         25
  59.9838         23
  60.0024         29