File: notebooks/data/xrd_data/ML_20220721_33_SJD_4_LaB6-4min.csv
;,2THETA,
5.0000,233
5.1858,266
5.3715,236
5.5573,245
5.7430,231
5.9288,175
6.1145,193
6.3003,170
6.4860,172
6.6718,168
6.8576,175
7.0433,148
7.2291,188
7.4148,165
7.6006,202
7.7863,193
7.9721,216
8.1579,233
8.3436,191
8.5294,206
8.7151,208
8.9009,221
9.0866,237
9.2724,218
9.4581,212
9.6439,212
9.8297,232
10.0154,244
10.2012,245
10.3869,248
10.5727,254
10.7584,229
10.9442,240
11.1299,232
11.3157,245
11.5015,265
11.6872,241
11.8730,230
12.0587,234
12.2445,210
12.4302,205
12.6160,254
12.8018,232
12.9875,226
13.1733,199
13.3590,189
13.5448,196
13.7305,212
13.9163,200
14.1020,178
14.2878,203
14.4736,176
14.6593,194
14.8451,175
15.0308,189
15.2166,159
15.4023,177
15.5881,163
15.7738,171
15.9596,174
16.1454,182
16.3311,150
16.5169,154
16.7026,165
16.8884,144
17.0741,153
17.2599,148
17.4457,157
17.6314,147
17.8172,168
18.0029,157
18.1887,168
18.3744,168
18.5602,168
18.7459,160
18.9317,186
19.1175,184
19.3032,164
19.4890,159
19.6747,170
19.8605,177
20.0462,193
20.2320,199
20.4177,188
20.6035,193
20.7893,212
20.9750,194
21.1608,243
21.3465,482
21.5323,196
21.7180,206
21.9038,202
22.0896,209
22.2753,198
22.4611,226
22.6468,194
22.8326,200
23.0183,224
23.2041,199
23.3898,199
23.5756,195
23.7614,191
23.9471,196
24.1329,212
24.3186,221
24.5044,217
24.6901,190
24.8759,196
25.0616,186
25.2474,168
25.4332,174
25.6189,201
25.8047,198
25.9904,182
26.1762,210
26.3619,205
26.5477,207
26.7335,214
26.9192,183
27.1050,213
27.2907,231
27.4765,174
27.6622,160
27.8480,162
28.0337,153
28.2195,181
28.4053,161
28.5910,170
28.7768,187
28.9625,192
29.1483,160
29.3340,185
29.5198,153
29.7055,157
29.8913,150
30.0771,131
30.2628,174
30.4486,252
30.6343,154
30.8201,153
31.0058,147
31.1916,153
31.3774,159
31.5631,144
31.7489,118
31.9346,119
32.1204,127
32.3061,136
32.4919,125
32.6776,115
32.8634,133
33.0492,133
33.2349,122
33.4207,118
33.6064,123
33.7922,127
33.9779,112
34.1637,116
34.3494,117
34.5352,130
34.7210,150
34.9067,161
35.0925,109
35.2782,110
35.4640,110
35.6497,100
35.8355,94
36.0213,102
36.2070,98
36.3928,95
36.5785,88
36.7643,80
36.9500,87
37.1358,77
37.3215,96
37.5073,117
37.6931,84
37.8788,87
38.0646,80
38.2503,82
38.4361,78
38.6218,81
38.8076,76
38.9933,106
39.1791,93
39.3649,88
39.5506,78
39.7364,92
39.9221,79
40.1079,91
40.2936,71
40.4794,94
40.6652,74
40.8509,70
41.0367,84
41.2224,77
41.4082,92
41.5939,85
41.7797,74
41.9654,63
42.1512,60
42.3370,68
42.5227,63
42.7085,67
42.8942,88
43.0800,77
43.2657,96
43.4515,83
43.6372,109
43.8230,76
44.0088,84
44.1945,71
44.3803,78
44.5660,95
44.7518,78
44.9375,79
45.1233,75
45.3091,77
45.4948,73
45.6806,79
45.8663,72
46.0521,66
46.2378,71
46.4236,70
46.6093,68
46.7951,73
46.9809,59
47.1666,73
47.3524,86
47.5381,66
47.7239,73
47.9096,80
48.0954,62
48.2811,65
48.4669,71
48.6527,90
48.8384,75
49.0242,82
49.2099,68
49.3957,61
49.5814,49
49.7672,53
49.9530,52
50.1387,68
50.3245,70
50.5102,64
50.6960,62
50.8817,67
51.0675,65
51.2532,74
51.4390,56
51.6248,56
51.8105,58
51.9963,56
52.1820,84
52.3678,50
52.5535,68
52.7393,62
52.9250,57
53.1108,67
53.2966,44
53.4823,42
53.6681,72
53.8538,59
54.0396,62
54.2253,52
54.4111,55
54.5969,48
54.7826,56
54.9684,59
55.1541,53
55.3399,62
55.5256,69
55.7114,48
55.8971,61
56.0829,63
56.2687,64
56.4544,63
56.6402,49
56.8259,54
57.0117,53
57.1974,50
57.3832,48
57.5689,59
57.7547,58
57.9405,66
58.1262,61
58.3120,50
58.4977,66
58.6835,55
58.8692,54
59.0550,53
59.2408,52
59.4265,56
59.6123,51
59.7980,58
59.9838,48
60.0024,46