File: notebooks/data/xrd_data/ML_20220718_44_SJD_4_LaB6-1min.csv
;,2THETA,
5.0000,89
5.1858,98
5.3715,98
5.5573,94
5.7430,76
5.9288,87
6.1145,78
6.3003,60
6.4860,63
6.6718,61
6.8576,59
7.0433,50
7.2291,57
7.4148,54
7.6006,63
7.7863,82
7.9721,69
8.1579,80
8.3436,63
8.5294,44
8.7151,70
8.9009,75
9.0866,77
9.2724,79
9.4581,74
9.6439,88
9.8297,88
10.0154,87
10.2012,92
10.3869,97
10.5727,87
10.7584,73
10.9442,90
11.1299,77
11.3157,114
11.5015,88
11.6872,82
11.8730,80
12.0587,71
12.2445,90
12.4302,87
12.6160,66
12.8018,71
12.9875,80
13.1733,69
13.3590,75
13.5448,78
13.7305,73
13.9163,74
14.1020,66
14.2878,63
14.4736,55
14.6593,64
14.8451,67
15.0308,57
15.2166,71
15.4023,61
15.5881,65
15.7738,49
15.9596,66
16.1454,60
16.3311,47
16.5169,69
16.7026,53
16.8884,49
17.0741,57
17.2599,71
17.4457,69
17.6314,57
17.8172,68
18.0029,61
18.1887,54
18.3744,61
18.5602,60
18.7459,76
18.9317,74
19.1175,66
19.3032,57
19.4890,80
19.6747,56
19.8605,65
20.0462,63
20.2320,60
20.4177,64
20.6035,72
20.7893,63
20.9750,80
21.1608,77
21.3465,177
21.5323,65
21.7180,71
21.9038,71
22.0896,56
22.2753,58
22.4611,68
22.6468,70
22.8326,64
23.0183,67
23.2041,72
23.3898,73
23.5756,54
23.7614,64
23.9471,72
24.1329,72
24.3186,84
24.5044,82
24.6901,75
24.8759,64
25.0616,71
25.2474,85
25.4332,67
25.6189,72
25.8047,77
25.9904,85
26.1762,62
26.3619,77
26.5477,66
26.7335,64
26.9192,70
27.1050,72
27.2907,74
27.4765,72
27.6622,69
27.8480,67
28.0337,70
28.2195,71
28.4053,75
28.5910,68
28.7768,49
28.9625,54
29.1483,49
29.3340,62
29.5198,45
29.7055,64
29.8913,56
30.0771,70
30.2628,55
30.4486,92
30.6343,58
30.8201,52
31.0058,64
31.1916,60
31.3774,50
31.5631,55
31.7489,50
31.9346,56
32.1204,48
32.3061,45
32.4919,45
32.6776,45
32.8634,46
33.0492,48
33.2349,40
33.4207,41
33.6064,46
33.7922,36
33.9779,51
34.1637,41
34.3494,45
34.5352,40
34.7210,47
34.9067,43
35.0925,38
35.2782,43
35.4640,25
35.6497,36
35.8355,38
36.0213,24
36.2070,42
36.3928,41
36.5785,29
36.7643,24
36.9500,34
37.1358,31
37.3215,31
37.5073,38
37.6931,34
37.8788,26
38.0646,31
38.2503,28
38.4361,31
38.6218,30
38.8076,25
38.9933,36
39.1791,22
39.3649,36
39.5506,27
39.7364,31
39.9221,31
40.1079,30
40.2936,24
40.4794,26
40.6652,19
40.8509,34
41.0367,33
41.2224,25
41.4082,28
41.5939,23
41.7797,34
41.9654,26
42.1512,27
42.3370,23
42.5227,21
42.7085,33
42.8942,17
43.0800,26
43.2657,31
43.4515,29
43.6372,38
43.8230,19
44.0088,13
44.1945,31
44.3803,25
44.5660,33
44.7518,22
44.9375,27
45.1233,30
45.3091,25
45.4948,25
45.6806,25
45.8663,26
46.0521,19
46.2378,21
46.4236,23
46.6093,25
46.7951,19
46.9809,28
47.1666,26
47.3524,18
47.5381,24
47.7239,25
47.9096,23
48.0954,20
48.2811,21
48.4669,26
48.6527,27
48.8384,26
49.0242,28
49.2099,31
49.3957,26
49.5814,25
49.7672,24
49.9530,14
50.1387,29
50.3245,23
50.5102,22
50.6960,23
50.8817,14
51.0675,22
51.2532,22
51.4390,27
51.6248,18
51.8105,22
51.9963,26
52.1820,25
52.3678,19
52.5535,17
52.7393,21
52.9250,23
53.1108,24
53.2966,14
53.4823,20
53.6681,26
53.8538,26
54.0396,30
54.2253,27
54.4111,19
54.5969,13
54.7826,27
54.9684,20
55.1541,12
55.3399,25
55.5256,12
55.7114,19
55.8971,15
56.0829,22
56.2687,29
56.4544,21
56.6402,20
56.8259,17
57.0117,20
57.1974,24
57.3832,20
57.5689,19
57.7547,30
57.9405,17
58.1262,16
58.3120,18
58.4977,17
58.6835,15
58.8692,31
59.0550,12
59.2408,15
59.4265,19
59.6123,21
59.7980,13
59.9838,15
60.0024,21