File: notebooks/data/xrd_data/ML_20220718_54_SJD_4_LaB6-2min.uxd
; (content of file Y:\Sam\Apurva-07-20-2022\puck4\ML_20220718_54_SJD_4_LaB6-2min.raw)
_FILEVERSION = 3
_SAMPLE = ML_20220718_54_SJD_4_LaB6-2min
_+SAMPLE =
_SITE = USA
_USER = Administrator
_GONIOMETER_CODE = 20
; Goniometer : D8 theta/2theta, stage : Unknown
_ATTACHMENTS_CODE = 0
_GONIOMETER_RADIUS = 200.5
_FIXED_DIVSLIT = 0.6
_FIXED_SAMPLESLIT = 0
_SOLLER_SLITS = 2
_FIXED_DETSLIT = 9.55
_MONOCHROMATOR = 0
; Incident beam monochromator : None
_SOLLER_SLITS_2 = N
_THIN_FILM = N
_BETA_FILTER = Y
_FIXED_ANTISLIT = 5.89
_ANALYZER_CODE = 0
; Received beam analyzer : None
_DATEMEASURED = "26-Jul-2022 12:37:12"
_WL_UNIT = A
_WL1 = 1.5406
_WL2 = 1.54439
_WL3 = 1.39222
_WLRATIO = 0.5
_ANODE = Cu
_V4_INF_CREATOR = XRDWizard
_V4_INF_CREATOR_VERSION = V2.9.0.22
_V4_INF_WIZARD_VERSION = V2.9.0.22
_V4_INF_WIZARD_ADDINS = V2.9.0.22
_V4_INF_WIZARD_DOCTYPE = XRD
_V4_INF_OSUSER = McQueenLab
_V4_INF_USER = Administrator
_V4_INF_SITE = USA
_V4_INF_SAMPLEID = ML_20220718_54_SJD_4_LaB6-2min

; Data for range 1
_DRIVE = COUPLED
_STEPTIME = 5.64
_STEPSIZE = 0.0185756
_STEPMODE = C
_START = 5
_THETA = 2.5
_2THETA = 5
_KHI = 0
_PHI = 0
_X = 0
_Y = 0
_Z = 0
_DETECTOR = 5
; Detector type : Unknown
_DETECTORSLIT = unkn
_AUX1 = 0
_AUX2 = 0
_AUX3 = 0
_TIMESTARTED = 15
_TEMP_RATE = -1
_TEMP_DELAY = -1
_KV = 40
_MA = 40
_RANGE_WL = 1.5406
_3DPLANE = 0
_V4_ADDITIONALDETECTOR = 257
_V4_PSD2THETA = 3.3706
_V4_PSDCHANNEL1 = 0
_V4_PSDAPERTURE = 12.68
_V4_PSDTYPE = 5
_V4_PSDFIXED = 0
_V4_COUNTERS_MASK = 4096
_V4_DRIVES_MASK = 0
_V4_ENCODERS_MASK = 0
_2THETACOUNTS = 1
; 2THETA  PSD
   5.0000        114
   5.1858        132
   5.3715        106
   5.5573        106
   5.7430        123
   5.9288        100
   6.1145         93
   6.3003         90
   6.4860         95
   6.6718         83
   6.8576         83
   7.0433         63
   7.2291         66
   7.4148         79
   7.6006         81
   7.7863         99
   7.9721         86
   8.1579         82
   8.3436        103
   8.5294        102
   8.7151        106
   8.9009        103
   9.0866        101
   9.2724        109
   9.4581        117
   9.6439        104
   9.8297        126
  10.0154        107
  10.2012        126
  10.3869        108
  10.5727        119
  10.7584        116
  10.9442        139
  11.1299        125
  11.3157        121
  11.5015        106
  11.6872        113
  11.8730        123
  12.0587         94
  12.2445        111
  12.4302        111
  12.6160         94
  12.8018        106
  12.9875         69
  13.1733        104
  13.3590         97
  13.5448         75
  13.7305         96
  13.9163         82
  14.1020        108
  14.2878         81
  14.4736         95
  14.6593         91
  14.8451         92
  15.0308         85
  15.2166         88
  15.4023         81
  15.5881         80
  15.7738         81
  15.9596         91
  16.1454         78
  16.3311         59
  16.5169         84
  16.7026         83
  16.8884         95
  17.0741         81
  17.2599         63
  17.4457         95
  17.6314         90
  17.8172         73
  18.0029         82
  18.1887         84
  18.3744         81
  18.5602         79
  18.7459         64
  18.9317         82
  19.1175         83
  19.3032         97
  19.4890        101
  19.6747         77
  19.8605         79
  20.0462         83
  20.2320        101
  20.4177        107
  20.6035         85
  20.7893         69
  20.9750        113
  21.1608        111
  21.3465        237
  21.5323         95
  21.7180         86
  21.9038        106
  22.0896        111
  22.2753         89
  22.4611         98
  22.6468        103
  22.8326         91
  23.0183        113
  23.2041         83
  23.3898        104
  23.5756        104
  23.7614         97
  23.9471        107
  24.1329         97
  24.3186        103
  24.5044         93
  24.6901        102
  24.8759         93
  25.0616         89
  25.2474         95
  25.4332        101
  25.6189        105
  25.8047         78
  25.9904         73
  26.1762         87
  26.3619        113
  26.5477         98
  26.7335        102
  26.9192         93
  27.1050        100
  27.2907        105
  27.4765        106
  27.6622         92
  27.8480         81
  28.0337         89
  28.2195         78
  28.4053         93
  28.5910         70
  28.7768         90
  28.9625         91
  29.1483         89
  29.3340         92
  29.5198         75
  29.7055         72
  29.8913         85
  30.0771         73
  30.2628         67
  30.4486        117
  30.6343         69
  30.8201         66
  31.0058         69
  31.1916         69
  31.3774         69
  31.5631         69
  31.7489         60
  31.9346         64
  32.1204         56
  32.3061         59
  32.4919         72
  32.6776         56
  32.8634         57
  33.0492         58
  33.2349         62
  33.4207         58
  33.6064         44
  33.7922         55
  33.9779         41
  34.1637         74
  34.3494         62
  34.5352         72
  34.7210         61
  34.9067         65
  35.0925         59
  35.2782         51
  35.4640         42
  35.6497         50
  35.8355         56
  36.0213         49
  36.2070         49
  36.3928         38
  36.5785         44
  36.7643         39
  36.9500         46
  37.1358         52
  37.3215         46
  37.5073         45
  37.6931         49
  37.8788         43
  38.0646         41
  38.2503         47
  38.4361         36
  38.6218         30
  38.8076         44
  38.9933         30
  39.1791         41
  39.3649         32
  39.5506         41
  39.7364         41
  39.9221         39
  40.1079         30
  40.2936         41
  40.4794         34
  40.6652         32
  40.8509         50
  41.0367         44
  41.2224         40
  41.4082         36
  41.5939         38
  41.7797         37
  41.9654         31
  42.1512         31
  42.3370         25
  42.5227         32
  42.7085         34
  42.8942         40
  43.0800         48
  43.2657         51
  43.4515         41
  43.6372         52
  43.8230         23
  44.0088         34
  44.1945         33
  44.3803         38
  44.5660         33
  44.7518         33
  44.9375         33
  45.1233         44
  45.3091         35
  45.4948         36
  45.6806         32
  45.8663         28
  46.0521         34
  46.2378         34
  46.4236         29
  46.6093         37
  46.7951         29
  46.9809         23
  47.1666         32
  47.3524         32
  47.5381         30
  47.7239         34
  47.9096         40
  48.0954         30
  48.2811         31
  48.4669         33
  48.6527         26
  48.8384         40
  49.0242         33
  49.2099         23
  49.3957         28
  49.5814         24
  49.7672         30
  49.9530         35
  50.1387         29
  50.3245         38
  50.5102         35
  50.6960         39
  50.8817         22
  51.0675         29
  51.2532         28
  51.4390         36
  51.6248         27
  51.8105         33
  51.9963         28
  52.1820         29
  52.3678         21
  52.5535         33
  52.7393         20
  52.9250         32
  53.1108         17
  53.2966         31
  53.4823         27
  53.6681         24
  53.8538         32
  54.0396         33
  54.2253         34
  54.4111         29
  54.5969         19
  54.7826         27
  54.9684         22
  55.1541         31
  55.3399         33
  55.5256         24
  55.7114         20
  55.8971         33
  56.0829         20
  56.2687         35
  56.4544         31
  56.6402         30
  56.8259         27
  57.0117         28
  57.1974         32
  57.3832         32
  57.5689         31
  57.7547         30
  57.9405         28
  58.1262         22
  58.3120         31
  58.4977         38
  58.6835         19
  58.8692         33
  59.0550         30
  59.2408         29
  59.4265         26
  59.6123         34
  59.7980         22
  59.9838         31
  60.0024         22