File: notebooks/data/xrd_data/ML_20220718_54_SJD_4_LaB6-4min.uxd
; (content of file Y:\Sam\Apurva-07-20-2022\puck4\ML_20220718_54_SJD_4_LaB6-4min.raw)
_FILEVERSION = 3
_SAMPLE = ML_20220718_54_SJD_4_LaB6-4min
_+SAMPLE =
_SITE = USA
_USER = Administrator
_GONIOMETER_CODE = 20
; Goniometer : D8 theta/2theta, stage : Unknown
_ATTACHMENTS_CODE = 0
_GONIOMETER_RADIUS = 200.5
_FIXED_DIVSLIT = 0.6
_FIXED_SAMPLESLIT = 0
_SOLLER_SLITS = 2
_FIXED_DETSLIT = 9.55
_MONOCHROMATOR = 0
; Incident beam monochromator : None
_SOLLER_SLITS_2 = N
_THIN_FILM = N
_BETA_FILTER = Y
_FIXED_ANTISLIT = 5.89
_ANALYZER_CODE = 0
; Received beam analyzer : None
_DATEMEASURED = "26-Jul-2022 14:18:41"
_WL_UNIT = A
_WL1 = 1.5406
_WL2 = 1.54439
_WL3 = 1.39222
_WLRATIO = 0.5
_ANODE = Cu
_V4_INF_CREATOR = XRDWizard
_V4_INF_CREATOR_VERSION = V2.9.0.22
_V4_INF_WIZARD_VERSION = V2.9.0.22
_V4_INF_WIZARD_ADDINS = V2.9.0.22
_V4_INF_WIZARD_DOCTYPE = XRD
_V4_INF_OSUSER = McQueenLab
_V4_INF_USER = Administrator
_V4_INF_SITE = USA
_V4_INF_SAMPLEID = ML_20220718_54_SJD_4_LaB6-4min

; Data for range 1
_DRIVE = COUPLED
_STEPTIME = 11.28
_STEPSIZE = 0.0185756
_STEPMODE = C
_START = 5
_THETA = 2.5
_2THETA = 5
_KHI = 0
_PHI = 0
_X = 0
_Y = 0
_Z = 0
_DETECTOR = 5
; Detector type : Unknown
_DETECTORSLIT = unkn
_AUX1 = 0
_AUX2 = 0
_AUX3 = 0
_TIMESTARTED = 14
_TEMP_RATE = -1
_TEMP_DELAY = -1
_KV = 40
_MA = 40
_RANGE_WL = 1.5406
_3DPLANE = 0
_V4_ADDITIONALDETECTOR = 257
_V4_PSD2THETA = 3.3878
_V4_PSDCHANNEL1 = 0
_V4_PSDAPERTURE = 12.68
_V4_PSDTYPE = 5
_V4_PSDFIXED = 0
_V4_COUNTERS_MASK = 4096
_V4_DRIVES_MASK = 0
_V4_ENCODERS_MASK = 0
_2THETACOUNTS = 1
; 2THETA  PSD
   5.0000        292
   5.1858        247
   5.3715        239
   5.5573        218
   5.7430        218
   5.9288        219
   6.1145        204
   6.3003        199
   6.4860        156
   6.6718        151
   6.8576        172
   7.0433        159
   7.2291        170
   7.4148        146
   7.6006        190
   7.7863        182
   7.9721        176
   8.1579        205
   8.3436        201
   8.5294        199
   8.7151        212
   8.9009        216
   9.0866        207
   9.2724        218
   9.4581        219
   9.6439        224
   9.8297        214
  10.0154        258
  10.2012        252
  10.3869        234
  10.5727        241
  10.7584        248
  10.9442        229
  11.1299        237
  11.3157        225
  11.5015        247
  11.6872        235
  11.8730        196
  12.0587        210
  12.2445        206
  12.4302        219
  12.6160        203
  12.8018        220
  12.9875        198
  13.1733        188
  13.3590        178
  13.5448        214
  13.7305        194
  13.9163        184
  14.1020        181
  14.2878        191
  14.4736        168
  14.6593        160
  14.8451        176
  15.0308        143
  15.2166        181
  15.4023        169
  15.5881        141
  15.7738        148
  15.9596        175
  16.1454        147
  16.3311        165
  16.5169        158
  16.7026        163
  16.8884        163
  17.0741        151
  17.2599        153
  17.4457        170
  17.6314        165
  17.8172        160
  18.0029        169
  18.1887        177
  18.3744        181
  18.5602        137
  18.7459        181
  18.9317        153
  19.1175        162
  19.3032        166
  19.4890        177
  19.6747        190
  19.8605        149
  20.0462        170
  20.2320        191
  20.4177        153
  20.6035        175
  20.7893        193
  20.9750        177
  21.1608        256
  21.3465        499
  21.5323        182
  21.7180        171
  21.9038        195
  22.0896        204
  22.2753        213
  22.4611        200
  22.6468        185
  22.8326        197
  23.0183        221
  23.2041        216
  23.3898        192
  23.5756        217
  23.7614        198
  23.9471        232
  24.1329        205
  24.3186        221
  24.5044        194
  24.6901        206
  24.8759        211
  25.0616        225
  25.2474        187
  25.4332        175
  25.6189        190
  25.8047        211
  25.9904        216
  26.1762        173
  26.3619        185
  26.5477        186
  26.7335        171
  26.9192        204
  27.1050        175
  27.2907        207
  27.4765        170
  27.6622        180
  27.8480        187
  28.0337        185
  28.2195        187
  28.4053        182
  28.5910        175
  28.7768        168
  28.9625        176
  29.1483        183
  29.3340        184
  29.5198        149
  29.7055        155
  29.8913        156
  30.0771        152
  30.2628        166
  30.4486        229
  30.6343        154
  30.8201        137
  31.0058        150
  31.1916        144
  31.3774        133
  31.5631        132
  31.7489        152
  31.9346        122
  32.1204        143
  32.3061        131
  32.4919        159
  32.6776        167
  32.8634        141
  33.0492        118
  33.2349        120
  33.4207        110
  33.6064        108
  33.7922         93
  33.9779        110
  34.1637        116
  34.3494        138
  34.5352        129
  34.7210        140
  34.9067        126
  35.0925         96
  35.2782         89
  35.4640        107
  35.6497        101
  35.8355        104
  36.0213        105
  36.2070         86
  36.3928         78
  36.5785        106
  36.7643         87
  36.9500         92
  37.1358         86
  37.3215        101
  37.5073        116
  37.6931         75
  37.8788         82
  38.0646         87
  38.2503         83
  38.4361         90
  38.6218         94
  38.8076         97
  38.9933         78
  39.1791         89
  39.3649         66
  39.5506         84
  39.7364         92
  39.9221         70
  40.1079         83
  40.2936         82
  40.4794         63
  40.6652         73
  40.8509         94
  41.0367         82
  41.2224         82
  41.4082         80
  41.5939         91
  41.7797         66
  41.9654         71
  42.1512         67
  42.3370         80
  42.5227         78
  42.7085         66
  42.8942         73
  43.0800         75
  43.2657         70
  43.4515         95
  43.6372        104
  43.8230         79
  44.0088         69
  44.1945         77
  44.3803         73
  44.5660         90
  44.7518         66
  44.9375         67
  45.1233         83
  45.3091         77
  45.4948         71
  45.6806         87
  45.8663         59
  46.0521         76
  46.2378         77
  46.4236         56
  46.6093         71
  46.7951         72
  46.9809         74
  47.1666         68
  47.3524         62
  47.5381         67
  47.7239         70
  47.9096         63
  48.0954         61
  48.2811         66
  48.4669         53
  48.6527         58
  48.8384         77
  49.0242         78
  49.2099         66
  49.3957         67
  49.5814         61
  49.7672         64
  49.9530         62
  50.1387         60
  50.3245         49
  50.5102         61
  50.6960         55
  50.8817         52
  51.0675         59
  51.2532         61
  51.4390         84
  51.6248         74
  51.8105         53
  51.9963         60
  52.1820         70
  52.3678         64
  52.5535         52
  52.7393         43
  52.9250         62
  53.1108         66
  53.2966         54
  53.4823         66
  53.6681         63
  53.8538         60
  54.0396         56
  54.2253         67
  54.4111         62
  54.5969         59
  54.7826         52
  54.9684         60
  55.1541         50
  55.3399         56
  55.5256         71
  55.7114         52
  55.8971         54
  56.0829         79
  56.2687         71
  56.4544         60
  56.6402         69
  56.8259         57
  57.0117         70
  57.1974         59
  57.3832         63
  57.5689         56
  57.7547         53
  57.9405         57
  58.1262         62
  58.3120         55
  58.4977         59
  58.6835         61
  58.8692         43
  59.0550         53
  59.2408         52
  59.4265         45
  59.6123         50
  59.7980         60
  59.9838         48
  60.0024         68