File: notebooks/data/xrd_data/ML_20220720_38_SJD_4_LaB6-1min.csv
;,2THETA,
5.0000,114
5.1858,94
5.3715,106
5.5573,76
5.7430,79
5.9288,59
6.1145,66
6.3003,73
6.4860,62
6.6718,61
6.8576,67
7.0433,61
7.2291,58
7.4148,47
7.6006,62
7.7863,57
7.9721,74
8.1579,72
8.3436,67
8.5294,64
8.7151,86
8.9009,89
9.0866,89
9.2724,84
9.4581,80
9.6439,80
9.8297,73
10.0154,74
10.2012,105
10.3869,82
10.5727,78
10.7584,92
10.9442,90
11.1299,99
11.3157,87
11.5015,78
11.6872,85
11.8730,89
12.0587,82
12.2445,98
12.4302,73
12.6160,83
12.8018,81
12.9875,75
13.1733,76
13.3590,60
13.5448,86
13.7305,63
13.9163,61
14.1020,74
14.2878,62
14.4736,65
14.6593,54
14.8451,52
15.0308,74
15.2166,60
15.4023,55
15.5881,79
15.7738,51
15.9596,69
16.1454,55
16.3311,63
16.5169,49
16.7026,66
16.8884,84
17.0741,62
17.2599,60
17.4457,72
17.6314,58
17.8172,59
18.0029,62
18.1887,56
18.3744,59
18.5602,60
18.7459,57
18.9317,52
19.1175,62
19.3032,54
19.4890,53
19.6747,64
19.8605,67
20.0462,71
20.2320,62
20.4177,73
20.6035,59
20.7893,62
20.9750,78
21.1608,94
21.3465,176
21.5323,82
21.7180,54
21.9038,71
22.0896,57
22.2753,73
22.4611,60
22.6468,81
22.8326,79
23.0183,73
23.2041,77
23.3898,68
23.5756,72
23.7614,60
23.9471,71
24.1329,65
24.3186,85
24.5044,80
24.6901,73
24.8759,71
25.0616,74
25.2474,64
25.4332,71
25.6189,66
25.8047,74
25.9904,70
26.1762,55
26.3619,71
26.5477,71
26.7335,88
26.9192,72
27.1050,86
27.2907,58
27.4765,68
27.6622,61
27.8480,61
28.0337,54
28.2195,58
28.4053,68
28.5910,66
28.7768,54
28.9625,53
29.1483,72
29.3340,58
29.5198,63
29.7055,52
29.8913,52
30.0771,53
30.2628,57
30.4486,80
30.6343,59
30.8201,52
31.0058,68
31.1916,44
31.3774,59
31.5631,41
31.7489,59
31.9346,52
32.1204,51
32.3061,35
32.4919,55
32.6776,52
32.8634,58
33.0492,45
33.2349,43
33.4207,42
33.6064,46
33.7922,27
33.9779,33
34.1637,26
34.3494,46
34.5352,48
34.7210,44
34.9067,37
35.0925,41
35.2782,28
35.4640,35
35.6497,26
35.8355,45
36.0213,35
36.2070,27
36.3928,37
36.5785,34
36.7643,37
36.9500,36
37.1358,38
37.3215,26
37.5073,35
37.6931,28
37.8788,30
38.0646,21
38.2503,37
38.4361,23
38.6218,21
38.8076,39
38.9933,30
39.1791,23
39.3649,22
39.5506,32
39.7364,31
39.9221,31
40.1079,16
40.2936,28
40.4794,18
40.6652,30
40.8509,25
41.0367,31
41.2224,31
41.4082,35
41.5939,23
41.7797,33
41.9654,19
42.1512,31
42.3370,29
42.5227,25
42.7085,37
42.8942,35
43.0800,25
43.2657,29
43.4515,33
43.6372,35
43.8230,27
44.0088,20
44.1945,30
44.3803,23
44.5660,27
44.7518,28
44.9375,19
45.1233,23
45.3091,15
45.4948,19
45.6806,34
45.8663,25
46.0521,29
46.2378,27
46.4236,28
46.6093,31
46.7951,23
46.9809,21
47.1666,29
47.3524,23
47.5381,27
47.7239,24
47.9096,23
48.0954,24
48.2811,16
48.4669,19
48.6527,27
48.8384,30
49.0242,31
49.2099,28
49.3957,29
49.5814,19
49.7672,28
49.9530,20
50.1387,15
50.3245,20
50.5102,27
50.6960,27
50.8817,25
51.0675,26
51.2532,25
51.4390,23
51.6248,15
51.8105,19
51.9963,20
52.1820,21
52.3678,24
52.5535,29
52.7393,15
52.9250,28
53.1108,28
53.2966,19
53.4823,19
53.6681,24
53.8538,19
54.0396,23
54.2253,28
54.4111,24
54.5969,20
54.7826,16
54.9684,28
55.1541,21
55.3399,21
55.5256,25
55.7114,17
55.8971,12
56.0829,15
56.2687,20
56.4544,21
56.6402,18
56.8259,22
57.0117,28
57.1974,14
57.3832,16
57.5689,29
57.7547,17
57.9405,22
58.1262,24
58.3120,16
58.4977,16
58.6835,25
58.8692,20
59.0550,17
59.2408,23
59.4265,21
59.6123,17
59.7980,19
59.9838,19
60.0024,26