File: notebooks/data/xrd_data/ML_20220720_4_SJD_4_LaB6-4min.csv
;,2THETA,
5.0000,235
5.1858,260
5.3715,243
5.5573,221
5.7430,193
5.9288,177
6.1145,233
6.3003,219
6.4860,166
6.6718,193
6.8576,172
7.0433,171
7.2291,171
7.4148,163
7.6006,165
7.7863,174
7.9721,157
8.1579,184
8.3436,205
8.5294,179
8.7151,194
8.9009,186
9.0866,253
9.2724,234
9.4581,240
9.6439,207
9.8297,257
10.0154,234
10.2012,223
10.3869,207
10.5727,267
10.7584,242
10.9442,235
11.1299,251
11.3157,249
11.5015,223
11.6872,223
11.8730,219
12.0587,219
12.2445,218
12.4302,235
12.6160,199
12.8018,217
12.9875,216
13.1733,193
13.3590,214
13.5448,212
13.7305,203
13.9163,185
14.1020,179
14.2878,157
14.4736,173
14.6593,167
14.8451,181
15.0308,178
15.2166,196
15.4023,199
15.5881,167
15.7738,161
15.9596,178
16.1454,176
16.3311,194
16.5169,144
16.7026,184
16.8884,173
17.0741,177
17.2599,164
17.4457,155
17.6314,157
17.8172,165
18.0029,135
18.1887,170
18.3744,162
18.5602,173
18.7459,169
18.9317,168
19.1175,183
19.3032,158
19.4890,187
19.6747,175
19.8605,184
20.0462,172
20.2320,183
20.4177,193
20.6035,190
20.7893,192
20.9750,205
21.1608,239
21.3465,522
21.5323,179
21.7180,199
21.9038,202
22.0896,200
22.2753,213
22.4611,217
22.6468,192
22.8326,197
23.0183,192
23.2041,213
23.3898,216
23.5756,203
23.7614,207
23.9471,188
24.1329,191
24.3186,217
24.5044,212
24.6901,204
24.8759,191
25.0616,214
25.2474,202
25.4332,210
25.6189,193
25.8047,202
25.9904,199
26.1762,195
26.3619,207
26.5477,199
26.7335,177
26.9192,180
27.1050,192
27.2907,238
27.4765,186
27.6622,178
27.8480,167
28.0337,167
28.2195,182
28.4053,198
28.5910,182
28.7768,172
28.9625,165
29.1483,156
29.3340,147
29.5198,139
29.7055,150
29.8913,155
30.0771,147
30.2628,158
30.4486,236
30.6343,145
30.8201,177
31.0058,156
31.1916,132
31.3774,164
31.5631,124
31.7489,138
31.9346,141
32.1204,117
32.3061,142
32.4919,131
32.6776,146
32.8634,125
33.0492,122
33.2349,121
33.4207,105
33.6064,110
33.7922,120
33.9779,112
34.1637,126
34.3494,106
34.5352,126
34.7210,146
34.9067,147
35.0925,104
35.2782,111
35.4640,94
35.6497,113
35.8355,105
36.0213,95
36.2070,98
36.3928,100
36.5785,112
36.7643,96
36.9500,86
37.1358,85
37.3215,100
37.5073,115
37.6931,83
37.8788,97
38.0646,67
38.2503,72
38.4361,90
38.6218,77
38.8076,91
38.9933,80
39.1791,70
39.3649,82
39.5506,74
39.7364,83
39.9221,71
40.1079,72
40.2936,73
40.4794,87
40.6652,72
40.8509,79
41.0367,64
41.2224,77
41.4082,67
41.5939,55
41.7797,89
41.9654,78
42.1512,78
42.3370,71
42.5227,68
42.7085,67
42.8942,90
43.0800,67
43.2657,87
43.4515,95
43.6372,91
43.8230,67
44.0088,77
44.1945,73
44.3803,68
44.5660,83
44.7518,74
44.9375,69
45.1233,76
45.3091,70
45.4948,47
45.6806,74
45.8663,81
46.0521,65
46.2378,46
46.4236,64
46.6093,83
46.7951,69
46.9809,63
47.1666,56
47.3524,67
47.5381,72
47.7239,55
47.9096,68
48.0954,52
48.2811,55
48.4669,61
48.6527,57
48.8384,80
49.0242,84
49.2099,74
49.3957,58
49.5814,58
49.7672,55
49.9530,58
50.1387,63
50.3245,68
50.5102,68
50.6960,51
50.8817,62
51.0675,68
51.2532,78
51.4390,63
51.6248,61
51.8105,69
51.9963,77
52.1820,65
52.3678,52
52.5535,56
52.7393,78
52.9250,60
53.1108,63
53.2966,66
53.4823,69
53.6681,61
53.8538,54
54.0396,66
54.2253,46
54.4111,73
54.5969,59
54.7826,47
54.9684,57
55.1541,52
55.3399,58
55.5256,53
55.7114,51
55.8971,57
56.0829,51
56.2687,58
56.4544,57
56.6402,43
56.8259,67
57.0117,52
57.1974,63
57.3832,58
57.5689,69
57.7547,64
57.9405,66
58.1262,56
58.3120,58
58.4977,61
58.6835,71
58.8692,49
59.0550,53
59.2408,62
59.4265,54
59.6123,67
59.7980,62
59.9838,57
60.0024,47