File: notebooks/data/xrd_data/ML_20220718_30_SJD_4_LaB6-2min.csv
;,2THETA,
5.0000,152
5.1858,106
5.3715,104
5.5573,114
5.7430,107
5.9288,92
6.1145,107
6.3003,93
6.4860,77
6.6718,116
6.8576,94
7.0433,79
7.2291,79
7.4148,92
7.6006,98
7.7863,81
7.9721,86
8.1579,91
8.3436,94
8.5294,98
8.7151,121
8.9009,91
9.0866,116
9.2724,116
9.4581,106
9.6439,100
9.8297,113
10.0154,104
10.2012,111
10.3869,118
10.5727,133
10.7584,123
10.9442,112
11.1299,110
11.3157,102
11.5015,131
11.6872,109
11.8730,123
12.0587,131
12.2445,109
12.4302,99
12.6160,95
12.8018,106
12.9875,90
13.1733,96
13.3590,100
13.5448,91
13.7305,102
13.9163,91
14.1020,95
14.2878,79
14.4736,99
14.6593,79
14.8451,83
15.0308,79
15.2166,60
15.4023,75
15.5881,77
15.7738,83
15.9596,81
16.1454,74
16.3311,63
16.5169,87
16.7026,96
16.8884,81
17.0741,83
17.2599,85
17.4457,71
17.6314,82
17.8172,96
18.0029,80
18.1887,96
18.3744,78
18.5602,82
18.7459,81
18.9317,73
19.1175,88
19.3032,80
19.4890,73
19.6747,85
19.8605,92
20.0462,80
20.2320,98
20.4177,101
20.6035,108
20.7893,108
20.9750,92
21.1608,136
21.3465,217
21.5323,112
21.7180,92
21.9038,81
22.0896,100
22.2753,82
22.4611,81
22.6468,93
22.8326,105
23.0183,112
23.2041,79
23.3898,94
23.5756,113
23.7614,92
23.9471,90
24.1329,107
24.3186,97
24.5044,79
24.6901,105
24.8759,83
25.0616,102
25.2474,111
25.4332,89
25.6189,103
25.8047,97
25.9904,90
26.1762,85
26.3619,100
26.5477,87
26.7335,92
26.9192,91
27.1050,97
27.2907,96
27.4765,95
27.6622,98
27.8480,87
28.0337,85
28.2195,77
28.4053,89
28.5910,67
28.7768,73
28.9625,95
29.1483,86
29.3340,72
29.5198,85
29.7055,87
29.8913,74
30.0771,81
30.2628,82
30.4486,104
30.6343,85
30.8201,63
31.0058,88
31.1916,72
31.3774,73
31.5631,60
31.7489,72
31.9346,71
32.1204,63
32.3061,62
32.4919,59
32.6776,71
32.8634,57
33.0492,62
33.2349,57
33.4207,53
33.6064,61
33.7922,54
33.9779,57
34.1637,59
34.3494,51
34.5352,68
34.7210,66
34.9067,60
35.0925,56
35.2782,64
35.4640,46
35.6497,34
35.8355,48
36.0213,34
36.2070,51
36.3928,57
36.5785,49
36.7643,58
36.9500,54
37.1358,44
37.3215,52
37.5073,48
37.6931,40
37.8788,37
38.0646,40
38.2503,38
38.4361,36
38.6218,41
38.8076,32
38.9933,41
39.1791,39
39.3649,41
39.5506,41
39.7364,42
39.9221,30
40.1079,55
40.2936,38
40.4794,44
40.6652,38
40.8509,35
41.0367,39
41.2224,37
41.4082,37
41.5939,34
41.7797,30
41.9654,30
42.1512,48
42.3370,24
42.5227,48
42.7085,36
42.8942,36
43.0800,46
43.2657,44
43.4515,43
43.6372,31
43.8230,31
44.0088,48
44.1945,38
44.3803,39
44.5660,40
44.7518,39
44.9375,34
45.1233,35
45.3091,19
45.4948,38
45.6806,25
45.8663,44
46.0521,37
46.2378,37
46.4236,25
46.6093,32
46.7951,35
46.9809,34
47.1666,36
47.3524,37
47.5381,27
47.7239,28
47.9096,46
48.0954,31
48.2811,31
48.4669,33
48.6527,28
48.8384,30
49.0242,29
49.2099,47
49.3957,30
49.5814,29
49.7672,43
49.9530,31
50.1387,32
50.3245,28
50.5102,30
50.6960,29
50.8817,31
51.0675,26
51.2532,23
51.4390,38
51.6248,25
51.8105,39
51.9963,22
52.1820,34
52.3678,33
52.5535,28
52.7393,28
52.9250,23
53.1108,26
53.2966,23
53.4823,28
53.6681,19
53.8538,30
54.0396,28
54.2253,32
54.4111,27
54.5969,20
54.7826,29
54.9684,25
55.1541,28
55.3399,31
55.5256,37
55.7114,27
55.8971,29
56.0829,28
56.2687,45
56.4544,39
56.6402,26
56.8259,26
57.0117,33
57.1974,33
57.3832,22
57.5689,20
57.7547,20
57.9405,32
58.1262,25
58.3120,26
58.4977,24
58.6835,22
58.8692,24
59.0550,26
59.2408,23
59.4265,26
59.6123,19
59.7980,35
59.9838,31
60.0024,25