File: notebooks/data/xrd_data/ML_20220718_44_SJD_4_LaB6-2min.uxd
; (content of file Y:\Sam\Apurva-07-20-2022\puck4\ML_20220718_44_SJD_4_LaB6-2min.raw)
_FILEVERSION = 3
_SAMPLE = ML_20220718_44_SJD_4_LaB6-2min
_+SAMPLE =
_SITE = USA
_USER = Administrator
_GONIOMETER_CODE = 20
; Goniometer : D8 theta/2theta, stage : Unknown
_ATTACHMENTS_CODE = 0
_GONIOMETER_RADIUS = 200.5
_FIXED_DIVSLIT = 0.6
_FIXED_SAMPLESLIT = 0
_SOLLER_SLITS = 2
_FIXED_DETSLIT = 9.55
_MONOCHROMATOR = 0
; Incident beam monochromator : None
_SOLLER_SLITS_2 = N
_THIN_FILM = N
_BETA_FILTER = Y
_FIXED_ANTISLIT = 5.89
_ANALYZER_CODE = 0
; Received beam analyzer : None
_DATEMEASURED = "26-Jul-2022 12:13:17"
_WL_UNIT = A
_WL1 = 1.5406
_WL2 = 1.54439
_WL3 = 1.39222
_WLRATIO = 0.5
_ANODE = Cu
_V4_INF_CREATOR = XRDWizard
_V4_INF_CREATOR_VERSION = V2.9.0.22
_V4_INF_WIZARD_VERSION = V2.9.0.22
_V4_INF_WIZARD_ADDINS = V2.9.0.22
_V4_INF_WIZARD_DOCTYPE = XRD
_V4_INF_OSUSER = McQueenLab
_V4_INF_USER = Administrator
_V4_INF_SITE = USA
_V4_INF_SAMPLEID = ML_20220718_44_SJD_4_LaB6-2min

; Data for range 1
_DRIVE = COUPLED
_STEPTIME = 5.64
_STEPSIZE = 0.0185756
_STEPMODE = C
_START = 5
_THETA = 2.5
_2THETA = 5
_KHI = 0
_PHI = 0
_X = 0
_Y = 0
_Z = 0
_DETECTOR = 5
; Detector type : Unknown
_DETECTORSLIT = unkn
_AUX1 = 0
_AUX2 = 0
_AUX3 = 0
_TIMESTARTED = 14
_TEMP_RATE = -1
_TEMP_DELAY = -1
_KV = 40
_MA = 40
_RANGE_WL = 1.5406
_3DPLANE = 0
_V4_ADDITIONALDETECTOR = 257
_V4_PSD2THETA = 3.4135
_V4_PSDCHANNEL1 = 0
_V4_PSDAPERTURE = 12.68
_V4_PSDTYPE = 5
_V4_PSDFIXED = 0
_V4_COUNTERS_MASK = 4096
_V4_DRIVES_MASK = 0
_V4_ENCODERS_MASK = 0
_2THETACOUNTS = 1
; 2THETA  PSD
   5.0000        132
   5.1858        117
   5.3715        123
   5.5573        116
   5.7430        109
   5.9288        114
   6.1145         94
   6.3003         80
   6.4860         85
   6.6718         82
   6.8576         80
   7.0433         75
   7.2291         85
   7.4148         76
   7.6006         78
   7.7863         86
   7.9721         79
   8.1579         94
   8.3436        108
   8.5294        111
   8.7151        111
   8.9009        112
   9.0866         96
   9.2724         96
   9.4581        112
   9.6439        122
   9.8297        112
  10.0154        126
  10.2012        135
  10.3869        119
  10.5727        120
  10.7584        114
  10.9442        106
  11.1299        114
  11.3157        129
  11.5015        148
  11.6872        115
  11.8730        102
  12.0587        108
  12.2445        125
  12.4302        111
  12.6160         98
  12.8018        121
  12.9875        111
  13.1733        111
  13.3590        114
  13.5448        113
  13.7305         94
  13.9163         92
  14.1020         97
  14.2878         90
  14.4736         67
  14.6593         98
  14.8451         91
  15.0308         84
  15.2166         95
  15.4023        108
  15.5881         74
  15.7738         78
  15.9596         72
  16.1454         75
  16.3311         75
  16.5169         64
  16.7026         86
  16.8884         76
  17.0741         81
  17.2599         84
  17.4457         62
  17.6314         79
  17.8172         70
  18.0029         74
  18.1887         99
  18.3744         84
  18.5602         86
  18.7459         91
  18.9317         84
  19.1175         96
  19.3032         79
  19.4890         81
  19.6747         96
  19.8605        116
  20.0462         87
  20.2320        101
  20.4177        101
  20.6035        100
  20.7893         94
  20.9750         86
  21.1608        111
  21.3465        245
  21.5323        103
  21.7180         87
  21.9038         85
  22.0896        103
  22.2753         94
  22.4611         80
  22.6468         85
  22.8326        101
  23.0183         96
  23.2041        108
  23.3898         94
  23.5756         96
  23.7614         97
  23.9471        105
  24.1329        100
  24.3186        113
  24.5044         93
  24.6901        109
  24.8759        101
  25.0616         88
  25.2474         94
  25.4332        105
  25.6189        104
  25.8047        102
  25.9904        105
  26.1762        112
  26.3619         82
  26.5477         97
  26.7335         89
  26.9192        100
  27.1050         80
  27.2907         95
  27.4765         96
  27.6622         95
  27.8480         68
  28.0337         68
  28.2195         77
  28.4053         76
  28.5910         80
  28.7768         83
  28.9625         88
  29.1483         80
  29.3340         72
  29.5198         83
  29.7055         84
  29.8913         77
  30.0771         68
  30.2628         91
  30.4486        110
  30.6343         78
  30.8201         59
  31.0058         87
  31.1916         67
  31.3774         78
  31.5631         61
  31.7489         56
  31.9346         70
  32.1204         55
  32.3061         72
  32.4919         80
  32.6776         58
  32.8634         64
  33.0492         61
  33.2349         64
  33.4207         55
  33.6064         62
  33.7922         50
  33.9779         61
  34.1637         60
  34.3494         47
  34.5352         59
  34.7210         69
  34.9067         56
  35.0925         61
  35.2782         50
  35.4640         62
  35.6497         48
  35.8355         49
  36.0213         57
  36.2070         51
  36.3928         40
  36.5785         54
  36.7643         51
  36.9500         54
  37.1358         56
  37.3215         49
  37.5073         44
  37.6931         51
  37.8788         49
  38.0646         54
  38.2503         39
  38.4361         42
  38.6218         42
  38.8076         57
  38.9933         57
  39.1791         37
  39.3649         35
  39.5506         45
  39.7364         38
  39.9221         35
  40.1079         38
  40.2936         33
  40.4794         37
  40.6652         38
  40.8509         30
  41.0367         48
  41.2224         28
  41.4082         42
  41.5939         35
  41.7797         35
  41.9654         45
  42.1512         36
  42.3370         46
  42.5227         37
  42.7085         34
  42.8942         38
  43.0800         42
  43.2657         40
  43.4515         37
  43.6372         47
  43.8230         29
  44.0088         44
  44.1945         37
  44.3803         33
  44.5660         41
  44.7518         37
  44.9375         29
  45.1233         22
  45.3091         41
  45.4948         25
  45.6806         33
  45.8663         39
  46.0521         27
  46.2378         28
  46.4236         21
  46.6093         30
  46.7951         32
  46.9809         29
  47.1666         38
  47.3524         32
  47.5381         29
  47.7239         38
  47.9096         32
  48.0954         43
  48.2811         31
  48.4669         29
  48.6527         30
  48.8384         38
  49.0242         36
  49.2099         23
  49.3957         25
  49.5814         37
  49.7672         38
  49.9530         33
  50.1387         31
  50.3245         39
  50.5102         31
  50.6960         26
  50.8817         38
  51.0675         39
  51.2532         27
  51.4390         42
  51.6248         41
  51.8105         30
  51.9963         33
  52.1820         36
  52.3678         28
  52.5535         28
  52.7393         19
  52.9250         30
  53.1108         32
  53.2966         28
  53.4823         29
  53.6681         31
  53.8538         34
  54.0396         36
  54.2253         46
  54.4111         23
  54.5969         30
  54.7826         33
  54.9684         21
  55.1541         21
  55.3399         31
  55.5256         29
  55.7114         32
  55.8971         39
  56.0829         33
  56.2687         35
  56.4544         29
  56.6402         34
  56.8259         23
  57.0117         24
  57.1974         26
  57.3832         30
  57.5689         26
  57.7547         34
  57.9405         29
  58.1262         30
  58.3120         27
  58.4977         31
  58.6835         26
  58.8692         35
  59.0550         23
  59.2408         25
  59.4265         22
  59.6123         22
  59.7980         26
  59.9838         24
  60.0024         29