File: notebooks/data/xrd_data/ML_20220718_36_SJD_4_LaB6-2min.uxd
; (content of file Y:\Sam\Apurva-07-20-2022\puck4\ML_20220718_36_SJD_0_LaB6-2min.raw)
_FILEVERSION = 3
_SAMPLE = ML_20220718_36_SJD_0_LaB6-2min
_+SAMPLE =
_SITE = USA
_USER = Administrator
_GONIOMETER_CODE = 20
; Goniometer : D8 theta/2theta, stage : Unknown
_ATTACHMENTS_CODE = 0
_GONIOMETER_RADIUS = 200.5
_FIXED_DIVSLIT = 0.6
_FIXED_SAMPLESLIT = 0
_SOLLER_SLITS = 2
_FIXED_DETSLIT = 9.55
_MONOCHROMATOR = 0
; Incident beam monochromator : None
_SOLLER_SLITS_2 = N
_THIN_FILM = N
_BETA_FILTER = Y
_FIXED_ANTISLIT = 5.89
_ANALYZER_CODE = 0
; Received beam analyzer : None
_DATEMEASURED = "26-Jul-2022 08:59:16"
_WL_UNIT = A
_WL1 = 1.5406
_WL2 = 1.54439
_WL3 = 1.39222
_WLRATIO = 0.5
_ANODE = Cu
_V4_INF_CREATOR = XRDWizard
_V4_INF_CREATOR_VERSION = V2.9.0.22
_V4_INF_WIZARD_VERSION = V2.9.0.22
_V4_INF_WIZARD_ADDINS = V2.9.0.22
_V4_INF_WIZARD_DOCTYPE = XRD
_V4_INF_OSUSER = McQueenLab
_V4_INF_USER = Administrator
_V4_INF_SITE = USA
_V4_INF_SAMPLEID = ML_20220718_36_SJD_0_LaB6-2min

; Data for range 1
_DRIVE = COUPLED
_STEPTIME = 5.64
_STEPSIZE = 0.0185756
_STEPMODE = C
_START = 5
_THETA = 2.5
_2THETA = 5
_KHI = 0
_PHI = 0
_X = 0
_Y = 0
_Z = 0
_DETECTOR = 5
; Detector type : Unknown
_DETECTORSLIT = unkn
_AUX1 = 0
_AUX2 = 0
_AUX3 = 0
_TIMESTARTED = 15
_TEMP_RATE = -1
_TEMP_DELAY = -1
_KV = 40
_MA = 40
_RANGE_WL = 1.5406
_3DPLANE = 0
_V4_ADDITIONALDETECTOR = 257
_V4_PSD2THETA = 3.4185
_V4_PSDCHANNEL1 = 0
_V4_PSDAPERTURE = 12.68
_V4_PSDTYPE = 5
_V4_PSDFIXED = 0
_V4_COUNTERS_MASK = 4096
_V4_DRIVES_MASK = 0
_V4_ENCODERS_MASK = 0
_2THETACOUNTS = 1
; 2THETA  PSD
   5.0000        120
   5.1858        130
   5.3715        103
   5.5573        119
   5.7430        107
   5.9288        103
   6.1145        118
   6.3003         90
   6.4860         94
   6.6718         87
   6.8576         73
   7.0433         85
   7.2291         99
   7.4148         79
   7.6006         93
   7.7863         92
   7.9721         74
   8.1579         85
   8.3436         97
   8.5294        116
   8.7151        120
   8.9009         85
   9.0866         92
   9.2724        101
   9.4581        109
   9.6439        110
   9.8297        113
  10.0154        129
  10.2012        110
  10.3869        119
  10.5727        114
  10.7584        115
  10.9442        134
  11.1299        109
  11.3157        121
  11.5015        126
  11.6872        105
  11.8730        106
  12.0587        119
  12.2445         96
  12.4302        100
  12.6160        105
  12.8018         94
  12.9875        100
  13.1733         89
  13.3590         79
  13.5448         85
  13.7305         89
  13.9163         85
  14.1020         68
  14.2878         87
  14.4736         92
  14.6593         98
  14.8451         81
  15.0308         86
  15.2166         73
  15.4023         98
  15.5881         97
  15.7738         91
  15.9596         78
  16.1454         82
  16.3311         82
  16.5169         77
  16.7026         77
  16.8884         93
  17.0741         83
  17.2599         76
  17.4457         72
  17.6314         76
  17.8172         73
  18.0029         67
  18.1887         79
  18.3744         86
  18.5602         81
  18.7459         75
  18.9317         77
  19.1175         90
  19.3032         83
  19.4890         99
  19.6747         85
  19.8605         81
  20.0462         85
  20.2320         94
  20.4177         99
  20.6035        107
  20.7893         81
  20.9750         77
  21.1608        109
  21.3465        238
  21.5323         79
  21.7180         68
  21.9038        103
  22.0896         84
  22.2753         96
  22.4611         95
  22.6468         86
  22.8326        102
  23.0183         98
  23.2041         92
  23.3898        105
  23.5756        101
  23.7614         93
  23.9471        105
  24.1329         97
  24.3186         97
  24.5044         82
  24.6901        101
  24.8759         96
  25.0616         94
  25.2474        105
  25.4332         95
  25.6189         89
  25.8047         96
  25.9904         81
  26.1762         82
  26.3619         89
  26.5477         95
  26.7335         89
  26.9192         95
  27.1050         97
  27.2907        120
  27.4765         85
  27.6622         98
  27.8480         85
  28.0337         87
  28.2195         80
  28.4053         82
  28.5910         79
  28.7768         85
  28.9625         79
  29.1483         80
  29.3340         85
  29.5198         83
  29.7055         64
  29.8913         84
  30.0771         87
  30.2628         77
  30.4486        121
  30.6343         58
  30.8201         61
  31.0058         69
  31.1916         63
  31.3774         84
  31.5631         66
  31.7489         50
  31.9346         73
  32.1204         64
  32.3061         63
  32.4919         81
  32.6776         64
  32.8634         55
  33.0492         53
  33.2349         64
  33.4207         64
  33.6064         62
  33.7922         49
  33.9779         43
  34.1637         71
  34.3494         53
  34.5352         57
  34.7210         70
  34.9067         61
  35.0925         54
  35.2782         55
  35.4640         50
  35.6497         54
  35.8355         46
  36.0213         32
  36.2070         50
  36.3928         43
  36.5785         45
  36.7643         40
  36.9500         47
  37.1358         48
  37.3215         44
  37.5073         59
  37.6931         47
  37.8788         39
  38.0646         38
  38.2503         51
  38.4361         28
  38.6218         43
  38.8076         58
  38.9933         38
  39.1791         53
  39.3649         34
  39.5506         34
  39.7364         31
  39.9221         32
  40.1079         39
  40.2936         43
  40.4794         40
  40.6652         31
  40.8509         26
  41.0367         46
  41.2224         34
  41.4082         32
  41.5939         37
  41.7797         26
  41.9654         31
  42.1512         33
  42.3370         37
  42.5227         36
  42.7085         33
  42.8942         42
  43.0800         34
  43.2657         38
  43.4515         43
  43.6372         45
  43.8230         37
  44.0088         28
  44.1945         36
  44.3803         43
  44.5660         43
  44.7518         39
  44.9375         30
  45.1233         40
  45.3091         34
  45.4948         36
  45.6806         31
  45.8663         33
  46.0521         44
  46.2378         32
  46.4236         25
  46.6093         23
  46.7951         40
  46.9809         24
  47.1666         25
  47.3524         23
  47.5381         26
  47.7239         34
  47.9096         29
  48.0954         32
  48.2811         38
  48.4669         33
  48.6527         20
  48.8384         28
  49.0242         32
  49.2099         28
  49.3957         25
  49.5814         31
  49.7672         23
  49.9530         20
  50.1387         20
  50.3245         25
  50.5102         39
  50.6960         29
  50.8817         27
  51.0675         20
  51.2532         27
  51.4390         31
  51.6248         33
  51.8105         39
  51.9963         33
  52.1820         29
  52.3678         28
  52.5535         32
  52.7393         39
  52.9250         28
  53.1108         27
  53.2966         25
  53.4823         27
  53.6681         29
  53.8538         17
  54.0396         45
  54.2253         23
  54.4111         29
  54.5969         18
  54.7826         28
  54.9684         32
  55.1541         32
  55.3399         24
  55.5256         38
  55.7114         30
  55.8971         27
  56.0829         32
  56.2687         31
  56.4544         24
  56.6402         37
  56.8259         27
  57.0117         31
  57.1974         28
  57.3832         27
  57.5689         26
  57.7547         34
  57.9405         33
  58.1262         21
  58.3120         25
  58.4977         23
  58.6835         24
  58.8692         27
  59.0550         25
  59.2408         27
  59.4265         27
  59.6123         24
  59.7980         30
  59.9838         32
  60.0024         23