File: notebooks/data/xrd_data/ML_20220720_11_SJD_4_LaB6-1min.uxd
; (content of file Y:\Sam\Apurva-07-20-2022\puck2\ML_20220720_11_SJD_0_LaB6-1min.raw)
_FILEVERSION = 3
_SAMPLE = ML_20220720_11_SJD_0_LaB6-1mi
_+SAMPLE =
_SITE = USA
_USER = Administrator
_GONIOMETER_CODE = 20
; Goniometer : D8 theta/2theta, stage : Unknown
_ATTACHMENTS_CODE = 0
_GONIOMETER_RADIUS = 200.5
_FIXED_DIVSLIT = 0.6
_FIXED_SAMPLESLIT = 0
_SOLLER_SLITS = 2
_FIXED_DETSLIT = 9.55
_MONOCHROMATOR = 0
; Incident beam monochromator : None
_SOLLER_SLITS_2 = N
_THIN_FILM = N
_BETA_FILTER = Y
_FIXED_ANTISLIT = 5.89
_ANALYZER_CODE = 0
; Received beam analyzer : None
_DATEMEASURED = "25-Jul-2022 18:06:49"
_WL_UNIT = A
_WL1 = 1.5406
_WL2 = 1.54439
_WL3 = 1.39222
_WLRATIO = 0.5
_ANODE = Cu
_V4_INF_CREATOR = XRDWizard
_V4_INF_CREATOR_VERSION = V2.9.0.22
_V4_INF_WIZARD_VERSION = V2.9.0.22
_V4_INF_WIZARD_ADDINS = V2.9.0.22
_V4_INF_WIZARD_DOCTYPE = XRD
_V4_INF_OSUSER = McQueenLab
_V4_INF_USER = Administrator
_V4_INF_SITE = USA
_V4_INF_SAMPLEID = ML_20220720_11_SJD_0_LaB6-1mi

; Data for range 1
_DRIVE = COUPLED
_STEPTIME = 4.23
_STEPSIZE = 0.0185756
_STEPMODE = C
_START = 5
_THETA = 2.5
_2THETA = 5
_KHI = 0
_PHI = 0
_X = 0
_Y = 0
_Z = 0
_DETECTOR = 5
; Detector type : Unknown
_DETECTORSLIT = unkn
_AUX1 = 0
_AUX2 = 0
_AUX3 = 0
_TIMESTARTED = 15
_TEMP_RATE = -1
_TEMP_DELAY = -1
_KV = 40
_MA = 40
_RANGE_WL = 1.5406
_3DPLANE = 0
_V4_ADDITIONALDETECTOR = 257
_V4_PSD2THETA = 3.3706
_V4_PSDCHANNEL1 = 0
_V4_PSDAPERTURE = 12.68
_V4_PSDTYPE = 5
_V4_PSDFIXED = 0
_V4_COUNTERS_MASK = 4096
_V4_DRIVES_MASK = 0
_V4_ENCODERS_MASK = 0
_2THETACOUNTS = 1
; 2THETA  PSD
   5.0000         93
   5.1858         90
   5.3715         69
   5.5573         55
   5.7430         78
   5.9288         58
   6.1145         69
   6.3003         83
   6.4860         59
   6.6718         44
   6.8576         58
   7.0433         48
   7.2291         58
   7.4148         51
   7.6006         65
   7.7863         51
   7.9721         68
   8.1579         83
   8.3436         58
   8.5294         74
   8.7151         73
   8.9009         71
   9.0866         85
   9.2724         70
   9.4581         66
   9.6439         72
   9.8297         81
  10.0154         90
  10.2012         88
  10.3869         80
  10.5727         88
  10.7584         81
  10.9442         95
  11.1299         82
  11.3157         83
  11.5015         79
  11.6872         86
  11.8730        104
  12.0587         83
  12.2445         65
  12.4302         83
  12.6160         76
  12.8018         63
  12.9875         68
  13.1733         80
  13.3590         72
  13.5448         77
  13.7305         58
  13.9163         78
  14.1020         66
  14.2878         76
  14.4736         63
  14.6593         70
  14.8451         90
  15.0308         60
  15.2166         49
  15.4023         56
  15.5881         64
  15.7738         48
  15.9596         68
  16.1454         71
  16.3311         64
  16.5169         71
  16.7026         65
  16.8884         70
  17.0741         58
  17.2599         68
  17.4457         57
  17.6314         52
  17.8172         65
  18.0029         59
  18.1887         65
  18.3744         67
  18.5602         65
  18.7459         76
  18.9317         79
  19.1175         77
  19.3032         60
  19.4890         60
  19.6747         70
  19.8605         62
  20.0462         59
  20.2320         65
  20.4177         78
  20.6035         60
  20.7893         57
  20.9750         63
  21.1608         91
  21.3465        190
  21.5323         64
  21.7180         67
  21.9038         81
  22.0896         66
  22.2753         75
  22.4611         68
  22.6468         75
  22.8326         85
  23.0183         88
  23.2041         71
  23.3898         66
  23.5756         76
  23.7614         86
  23.9471         69
  24.1329         83
  24.3186         80
  24.5044         80
  24.6901         73
  24.8759         60
  25.0616         62
  25.2474         68
  25.4332         56
  25.6189         67
  25.8047         66
  25.9904         72
  26.1762         64
  26.3619         67
  26.5477         84
  26.7335         73
  26.9192         55
  27.1050         67
  27.2907         68
  27.4765         70
  27.6622         70
  27.8480         93
  28.0337         71
  28.2195         61
  28.4053         63
  28.5910         62
  28.7768         66
  28.9625         61
  29.1483         39
  29.3340         60
  29.5198         56
  29.7055         57
  29.8913         35
  30.0771         55
  30.2628         56
  30.4486         82
  30.6343         54
  30.8201         51
  31.0058         48
  31.1916         54
  31.3774         48
  31.5631         49
  31.7489         41
  31.9346         52
  32.1204         41
  32.3061         44
  32.4919         51
  32.6776         58
  32.8634         48
  33.0492         43
  33.2349         48
  33.4207         34
  33.6064         43
  33.7922         40
  33.9779         52
  34.1637         35
  34.3494         39
  34.5352         45
  34.7210         65
  34.9067         34
  35.0925         44
  35.2782         40
  35.4640         42
  35.6497         37
  35.8355         41
  36.0213         42
  36.2070         34
  36.3928         34
  36.5785         45
  36.7643         33
  36.9500         37
  37.1358         36
  37.3215         36
  37.5073         43
  37.6931         29
  37.8788         32
  38.0646         26
  38.2503         27
  38.4361         35
  38.6218         27
  38.8076         24
  38.9933         32
  39.1791         27
  39.3649         30
  39.5506         47
  39.7364         20
  39.9221         23
  40.1079         34
  40.2936         22
  40.4794         31
  40.6652         37
  40.8509         18
  41.0367         21
  41.2224         28
  41.4082         23
  41.5939         31
  41.7797         28
  41.9654         24
  42.1512         28
  42.3370         35
  42.5227         22
  42.7085         26
  42.8942         29
  43.0800         25
  43.2657         38
  43.4515         23
  43.6372         34
  43.8230         28
  44.0088         26
  44.1945         23
  44.3803         28
  44.5660         28
  44.7518         37
  44.9375         36
  45.1233         23
  45.3091         21
  45.4948         21
  45.6806         24
  45.8663         21
  46.0521         31
  46.2378         18
  46.4236         24
  46.6093         26
  46.7951         29
  46.9809         18
  47.1666         18
  47.3524         22
  47.5381         22
  47.7239         24
  47.9096         21
  48.0954         22
  48.2811         22
  48.4669         28
  48.6527         21
  48.8384         26
  49.0242         34
  49.2099         23
  49.3957         19
  49.5814         15
  49.7672         26
  49.9530         21
  50.1387         31
  50.3245         26
  50.5102         15
  50.6960         18
  50.8817         28
  51.0675         17
  51.2532         24
  51.4390         31
  51.6248         32
  51.8105         19
  51.9963         26
  52.1820         22
  52.3678         23
  52.5535         21
  52.7393         33
  52.9250         20
  53.1108         28
  53.2966         14
  53.4823         23
  53.6681         32
  53.8538         22
  54.0396         27
  54.2253         24
  54.4111         23
  54.5969         25
  54.7826         27
  54.9684         21
  55.1541         22
  55.3399         19
  55.5256         20
  55.7114         23
  55.8971         23
  56.0829         24
  56.2687         22
  56.4544         25
  56.6402         24
  56.8259         33
  57.0117         22
  57.1974         23
  57.3832         21
  57.5689         25
  57.7547         25
  57.9405         31
  58.1262         16
  58.3120         22
  58.4977         20
  58.6835         18
  58.8692         13
  59.0550         21
  59.2408         18
  59.4265         11
  59.6123         25
  59.7980         21
  59.9838         21
  60.0024         16