File: notebooks/data/xrd_data/ML_20220718_55_SJD_4_LaB6-4min.uxd
; (content of file Y:\Sam\Apurva-07-20-2022\puck4\ML_20220718_55_SJD_4_LaB6-4min.raw)
_FILEVERSION = 3
_SAMPLE = ML_20220718_55_SJD_4_LaB6-4min
_+SAMPLE =
_SITE = USA
_USER = Administrator
_GONIOMETER_CODE = 20
; Goniometer : D8 theta/2theta, stage : Unknown
_ATTACHMENTS_CODE = 0
_GONIOMETER_RADIUS = 200.5
_FIXED_DIVSLIT = 0.6
_FIXED_SAMPLESLIT = 0
_SOLLER_SLITS = 2
_FIXED_DETSLIT = 9.55
_MONOCHROMATOR = 0
; Incident beam monochromator : None
_SOLLER_SLITS_2 = N
_THIN_FILM = N
_BETA_FILTER = Y
_FIXED_ANTISLIT = 5.89
_ANALYZER_CODE = 0
; Received beam analyzer : None
_DATEMEASURED = "26-Jul-2022 14:23:10"
_WL_UNIT = A
_WL1 = 1.5406
_WL2 = 1.54439
_WL3 = 1.39222
_WLRATIO = 0.5
_ANODE = Cu
_V4_INF_CREATOR = XRDWizard
_V4_INF_CREATOR_VERSION = V2.9.0.22
_V4_INF_WIZARD_VERSION = V2.9.0.22
_V4_INF_WIZARD_ADDINS = V2.9.0.22
_V4_INF_WIZARD_DOCTYPE = XRD
_V4_INF_OSUSER = McQueenLab
_V4_INF_USER = Administrator
_V4_INF_SITE = USA
_V4_INF_SAMPLEID = ML_20220718_55_SJD_4_LaB6-4min

; Data for range 1
_DRIVE = COUPLED
_STEPTIME = 11.28
_STEPSIZE = 0.0185756
_STEPMODE = C
_START = 5
_THETA = 2.5
_2THETA = 5
_KHI = 0
_PHI = 0
_X = 0
_Y = 0
_Z = 0
_DETECTOR = 5
; Detector type : Unknown
_DETECTORSLIT = unkn
_AUX1 = 0
_AUX2 = 0
_AUX3 = 0
_TIMESTARTED = 15
_TEMP_RATE = -1
_TEMP_DELAY = -1
_KV = 40
_MA = 40
_RANGE_WL = 1.5406
_3DPLANE = 0
_V4_ADDITIONALDETECTOR = 257
_V4_PSD2THETA = 3.3876
_V4_PSDCHANNEL1 = 0
_V4_PSDAPERTURE = 12.68
_V4_PSDTYPE = 5
_V4_PSDFIXED = 0
_V4_COUNTERS_MASK = 4096
_V4_DRIVES_MASK = 0
_V4_ENCODERS_MASK = 0
_2THETACOUNTS = 1
; 2THETA  PSD
   5.0000        225
   5.1858        258
   5.3715        219
   5.5573        213
   5.7430        203
   5.9288        184
   6.1145        199
   6.3003        211
   6.4860        154
   6.6718        183
   6.8576        158
   7.0433        172
   7.2291        170
   7.4148        169
   7.6006        177
   7.7863        169
   7.9721        174
   8.1579        183
   8.3436        192
   8.5294        183
   8.7151        195
   8.9009        226
   9.0866        206
   9.2724        227
   9.4581        224
   9.6439        225
   9.8297        244
  10.0154        227
  10.2012        231
  10.3869        250
  10.5727        255
  10.7584        241
  10.9442        231
  11.1299        236
  11.3157        246
  11.5015        230
  11.6872        238
  11.8730        229
  12.0587        243
  12.2445        237
  12.4302        217
  12.6160        217
  12.8018        192
  12.9875        207
  13.1733        195
  13.3590        195
  13.5448        197
  13.7305        185
  13.9163        196
  14.1020        169
  14.2878        184
  14.4736        166
  14.6593        185
  14.8451        185
  15.0308        168
  15.2166        169
  15.4023        182
  15.5881        157
  15.7738        159
  15.9596        151
  16.1454        164
  16.3311        168
  16.5169        172
  16.7026        167
  16.8884        185
  17.0741        160
  17.2599        171
  17.4457        134
  17.6314        148
  17.8172        154
  18.0029        197
  18.1887        165
  18.3744        174
  18.5602        190
  18.7459        164
  18.9317        162
  19.1175        170
  19.3032        183
  19.4890        188
  19.6747        174
  19.8605        181
  20.0462        173
  20.2320        192
  20.4177        172
  20.6035        187
  20.7893        208
  20.9750        197
  21.1608        251
  21.3465        452
  21.5323        189
  21.7180        182
  21.9038        190
  22.0896        189
  22.2753        171
  22.4611        161
  22.6468        173
  22.8326        193
  23.0183        217
  23.2041        196
  23.3898        190
  23.5756        225
  23.7614        192
  23.9471        228
  24.1329        215
  24.3186        196
  24.5044        203
  24.6901        209
  24.8759        190
  25.0616        203
  25.2474        207
  25.4332        181
  25.6189        191
  25.8047        186
  25.9904        198
  26.1762        172
  26.3619        209
  26.5477        176
  26.7335        178
  26.9192        199
  27.1050        176
  27.2907        198
  27.4765        183
  27.6622        179
  27.8480        176
  28.0337        167
  28.2195        183
  28.4053        148
  28.5910        146
  28.7768        177
  28.9625        169
  29.1483        164
  29.3340        179
  29.5198        175
  29.7055        158
  29.8913        144
  30.0771        160
  30.2628        189
  30.4486        216
  30.6343        172
  30.8201        154
  31.0058        146
  31.1916        157
  31.3774        144
  31.5631        134
  31.7489        117
  31.9346        128
  32.1204        123
  32.3061        123
  32.4919        184
  32.6776        113
  32.8634        121
  33.0492        110
  33.2349        118
  33.4207        131
  33.6064        144
  33.7922        134
  33.9779        110
  34.1637        120
  34.3494        128
  34.5352        135
  34.7210        151
  34.9067        125
  35.0925         94
  35.2782         99
  35.4640        111
  35.6497        110
  35.8355         88
  36.0213        103
  36.2070        100
  36.3928         94
  36.5785         89
  36.7643         93
  36.9500         92
  37.1358         85
  37.3215        102
  37.5073        119
  37.6931         95
  37.8788         94
  38.0646         80
  38.2503         85
  38.4361         83
  38.6218         84
  38.8076         76
  38.9933         77
  39.1791         78
  39.3649         80
  39.5506         83
  39.7364         55
  39.9221         76
  40.1079         89
  40.2936         71
  40.4794         82
  40.6652         73
  40.8509         80
  41.0367         75
  41.2224         72
  41.4082         74
  41.5939         76
  41.7797         55
  41.9654         68
  42.1512         88
  42.3370         84
  42.5227         71
  42.7085         80
  42.8942         65
  43.0800         89
  43.2657         80
  43.4515         72
  43.6372        129
  43.8230         80
  44.0088         90
  44.1945         80
  44.3803         83
  44.5660         52
  44.7518         68
  44.9375         76
  45.1233         74
  45.3091         62
  45.4948         77
  45.6806         83
  45.8663         50
  46.0521         73
  46.2378         62
  46.4236         63
  46.6093         90
  46.7951         58
  46.9809         63
  47.1666         65
  47.3524         70
  47.5381         87
  47.7239         64
  47.9096         78
  48.0954         57
  48.2811         54
  48.4669         65
  48.6527         73
  48.8384         68
  49.0242         82
  49.2099         66
  49.3957         48
  49.5814         59
  49.7672         69
  49.9530         72
  50.1387         77
  50.3245         69
  50.5102         60
  50.6960         54
  50.8817         57
  51.0675         55
  51.2532         53
  51.4390         59
  51.6248         62
  51.8105         65
  51.9963         58
  52.1820         52
  52.3678         51
  52.5535         69
  52.7393         57
  52.9250         66
  53.1108         57
  53.2966         65
  53.4823         62
  53.6681         57
  53.8538         66
  54.0396         56
  54.2253         59
  54.4111         58
  54.5969         59
  54.7826         64
  54.9684         50
  55.1541         62
  55.3399         51
  55.5256         49
  55.7114         59
  55.8971         63
  56.0829         60
  56.2687         62
  56.4544         70
  56.6402         59
  56.8259         79
  57.0117         51
  57.1974         58
  57.3832         59
  57.5689         57
  57.7547         66
  57.9405         48
  58.1262         50
  58.3120         67
  58.4977         54
  58.6835         50
  58.8692         53
  59.0550         60
  59.2408         49
  59.4265         42
  59.6123         50
  59.7980         57
  59.9838         56
  60.0024         46