File: notebooks/data/xrd_data/ML_20220720_26_SJD_4_LaB6-1min.uxd
; (content of file Y:\Sam\Apurva-07-20-2022\puck2\ML_20220720_26_SJD_0_LaB6-1min.raw)
_FILEVERSION = 3
_SAMPLE = ML_20220720_26_SJD_0_LaB6-1min
_+SAMPLE =
_SITE = USA
_USER = Administrator
_GONIOMETER_CODE = 20
; Goniometer : D8 theta/2theta, stage : Unknown
_ATTACHMENTS_CODE = 0
_GONIOMETER_RADIUS = 200.5
_FIXED_DIVSLIT = 0.6
_FIXED_SAMPLESLIT = 0
_SOLLER_SLITS = 2
_FIXED_DETSLIT = 9.55
_MONOCHROMATOR = 0
; Incident beam monochromator : None
_SOLLER_SLITS_2 = N
_THIN_FILM = N
_BETA_FILTER = Y
_FIXED_ANTISLIT = 5.89
_ANALYZER_CODE = 0
; Received beam analyzer : None
_DATEMEASURED = "25-Jul-2022 18:34:54"
_WL_UNIT = A
_WL1 = 1.5406
_WL2 = 1.54439
_WL3 = 1.39222
_WLRATIO = 0.5
_ANODE = Cu
_V4_INF_CREATOR = XRDWizard
_V4_INF_CREATOR_VERSION = V2.9.0.22
_V4_INF_WIZARD_VERSION = V2.9.0.22
_V4_INF_WIZARD_ADDINS = V2.9.0.22
_V4_INF_WIZARD_DOCTYPE = XRD
_V4_INF_OSUSER = McQueenLab
_V4_INF_USER = Administrator
_V4_INF_SITE = USA
_V4_INF_SAMPLEID = ML_20220720_26_SJD_0_LaB6-1min

; Data for range 1
_DRIVE = COUPLED
_STEPTIME = 4.23
_STEPSIZE = 0.0185756
_STEPMODE = C
_START = 5
_THETA = 2.5
_2THETA = 5
_KHI = 0
_PHI = 0
_X = 0
_Y = 0
_Z = 0
_DETECTOR = 5
; Detector type : Unknown
_DETECTORSLIT = unkn
_AUX1 = 0
_AUX2 = 0
_AUX3 = 0
_TIMESTARTED = 15
_TEMP_RATE = -1
_TEMP_DELAY = -1
_KV = 40
_MA = 40
_RANGE_WL = 1.5406
_3DPLANE = 0
_V4_ADDITIONALDETECTOR = 257
_V4_PSD2THETA = 3.431
_V4_PSDCHANNEL1 = 0
_V4_PSDAPERTURE = 12.68
_V4_PSDTYPE = 5
_V4_PSDFIXED = 0
_V4_COUNTERS_MASK = 4096
_V4_DRIVES_MASK = 0
_V4_ENCODERS_MASK = 0
_2THETACOUNTS = 1
; 2THETA  PSD
   5.0000         95
   5.1858         88
   5.3715         77
   5.5573         76
   5.7430         81
   5.9288         92
   6.1145         59
   6.3003         72
   6.4860         79
   6.6718         65
   6.8576         74
   7.0433         52
   7.2291         68
   7.4148         56
   7.6006         67
   7.7863         65
   7.9721         69
   8.1579         77
   8.3436         75
   8.5294         90
   8.7151         79
   8.9009         84
   9.0866         81
   9.2724         76
   9.4581        106
   9.6439         76
   9.8297         86
  10.0154         90
  10.2012         89
  10.3869         90
  10.5727         78
  10.7584         78
  10.9442        102
  11.1299         73
  11.3157         88
  11.5015         97
  11.6872         87
  11.8730         82
  12.0587        100
  12.2445         97
  12.4302         73
  12.6160         54
  12.8018         76
  12.9875         78
  13.1733         81
  13.3590         68
  13.5448         62
  13.7305         61
  13.9163         53
  14.1020         61
  14.2878         76
  14.4736         65
  14.6593         63
  14.8451         54
  15.0308         53
  15.2166         67
  15.4023         57
  15.5881         76
  15.7738         66
  15.9596         69
  16.1454         70
  16.3311         59
  16.5169         65
  16.7026         63
  16.8884         61
  17.0741         55
  17.2599         59
  17.4457         52
  17.6314         52
  17.8172         71
  18.0029         56
  18.1887         46
  18.3744         55
  18.5602         54
  18.7459         81
  18.9317         71
  19.1175         53
  19.3032         63
  19.4890         59
  19.6747         63
  19.8605         46
  20.0462         66
  20.2320         66
  20.4177         83
  20.6035         74
  20.7893         72
  20.9750         65
  21.1608         58
  21.3465        188
  21.5323         75
  21.7180         66
  21.9038         62
  22.0896         76
  22.2753         72
  22.4611         67
  22.6468         67
  22.8326         60
  23.0183         74
  23.2041         72
  23.3898         83
  23.5756         77
  23.7614         70
  23.9471         78
  24.1329         73
  24.3186         77
  24.5044         74
  24.6901         75
  24.8759         67
  25.0616         66
  25.2474         80
  25.4332         68
  25.6189         78
  25.8047         71
  25.9904         69
  26.1762         73
  26.3619         67
  26.5477         74
  26.7335         72
  26.9192         75
  27.1050         70
  27.2907         69
  27.4765         65
  27.6622         69
  27.8480         72
  28.0337         57
  28.2195         58
  28.4053         65
  28.5910         54
  28.7768         44
  28.9625         65
  29.1483         62
  29.3340         64
  29.5198         63
  29.7055         69
  29.8913         57
  30.0771         62
  30.2628         65
  30.4486         95
  30.6343         55
  30.8201         44
  31.0058         44
  31.1916         46
  31.3774         59
  31.5631         42
  31.7489         48
  31.9346         48
  32.1204         49
  32.3061         41
  32.4919         62
  32.6776         57
  32.8634         51
  33.0492         41
  33.2349         64
  33.4207         48
  33.6064         49
  33.7922         38
  33.9779         53
  34.1637         34
  34.3494         40
  34.5352         50
  34.7210         48
  34.9067         49
  35.0925         34
  35.2782         37
  35.4640         38
  35.6497         36
  35.8355         28
  36.0213         30
  36.2070         27
  36.3928         39
  36.5785         34
  36.7643         35
  36.9500         30
  37.1358         26
  37.3215         33
  37.5073         47
  37.6931         33
  37.8788         16
  38.0646         33
  38.2503         30
  38.4361         33
  38.6218         34
  38.8076         40
  38.9933         32
  39.1791         27
  39.3649         27
  39.5506         20
  39.7364         30
  39.9221         23
  40.1079         34
  40.2936         26
  40.4794         27
  40.6652         37
  40.8509         29
  41.0367         23
  41.2224         25
  41.4082         34
  41.5939         31
  41.7797         26
  41.9654         23
  42.1512         25
  42.3370         31
  42.5227         32
  42.7085         23
  42.8942         19
  43.0800         22
  43.2657         36
  43.4515         34
  43.6372         29
  43.8230         27
  44.0088         29
  44.1945         22
  44.3803         28
  44.5660         30
  44.7518         28
  44.9375         30
  45.1233         26
  45.3091         25
  45.4948         32
  45.6806         28
  45.8663         21
  46.0521         21
  46.2378         22
  46.4236         30
  46.6093         25
  46.7951         17
  46.9809         25
  47.1666         16
  47.3524         17
  47.5381         20
  47.7239         25
  47.9096         19
  48.0954         24
  48.2811         15
  48.4669         25
  48.6527         16
  48.8384         22
  49.0242         31
  49.2099         24
  49.3957         24
  49.5814         21
  49.7672         31
  49.9530         17
  50.1387         20
  50.3245         28
  50.5102         27
  50.6960         25
  50.8817         21
  51.0675         19
  51.2532         19
  51.4390         23
  51.6248         25
  51.8105         19
  51.9963         26
  52.1820         20
  52.3678         20
  52.5535         16
  52.7393         17
  52.9250         23
  53.1108         28
  53.2966         25
  53.4823         19
  53.6681         19
  53.8538         25
  54.0396         30
  54.2253         16
  54.4111         22
  54.5969         25
  54.7826         19
  54.9684         22
  55.1541         21
  55.3399         15
  55.5256         21
  55.7114         26
  55.8971         20
  56.0829         20
  56.2687         20
  56.4544         24
  56.6402         16
  56.8259         19
  57.0117         17
  57.1974         20
  57.3832         20
  57.5689         18
  57.7547         15
  57.9405         20
  58.1262         26
  58.3120         16
  58.4977         19
  58.6835         25
  58.8692         18
  59.0550         25
  59.2408         22
  59.4265         14
  59.6123         26
  59.7980         18
  59.9838         21
  60.0024         21