File: notebooks/data/xrd_data/ML_20220718_20_SJD_4_LaB6-2min.uxd
; (content of file Y:\Sam\Apurva-07-20-2022\puck4\ML_20220718_20_SJD_0_LaB6-2min.raw)
_FILEVERSION = 3
_SAMPLE = ML_20220718_20_SJD_0_LaB6-2min
_+SAMPLE =
_SITE = USA
_USER = Administrator
_GONIOMETER_CODE = 20
; Goniometer : D8 theta/2theta, stage : Unknown
_ATTACHMENTS_CODE = 0
_GONIOMETER_RADIUS = 200.5
_FIXED_DIVSLIT = 0.6
_FIXED_SAMPLESLIT = 0
_SOLLER_SLITS = 2
_FIXED_DETSLIT = 9.55
_MONOCHROMATOR = 0
; Incident beam monochromator : None
_SOLLER_SLITS_2 = N
_THIN_FILM = N
_BETA_FILTER = Y
_FIXED_ANTISLIT = 5.89
_ANALYZER_CODE = 0
; Received beam analyzer : None
_DATEMEASURED = "26-Jul-2022 09:37:31"
_WL_UNIT = A
_WL1 = 1.5406
_WL2 = 1.54439
_WL3 = 1.39222
_WLRATIO = 0.5
_ANODE = Cu
_V4_INF_CREATOR = XRDWizard
_V4_INF_CREATOR_VERSION = V2.9.0.22
_V4_INF_WIZARD_VERSION = V2.9.0.22
_V4_INF_WIZARD_ADDINS = V2.9.0.22
_V4_INF_WIZARD_DOCTYPE = XRD
_V4_INF_OSUSER = McQueenLab
_V4_INF_USER = Administrator
_V4_INF_SITE = USA
_V4_INF_SAMPLEID = ML_20220718_20_SJD_0_LaB6-2min

; Data for range 1
_DRIVE = COUPLED
_STEPTIME = 5.64
_STEPSIZE = 0.0185756
_STEPMODE = C
_START = 5
_THETA = 2.5
_2THETA = 5
_KHI = 0
_PHI = 0
_X = 0
_Y = 0
_Z = 0
_DETECTOR = 5
; Detector type : Unknown
_DETECTORSLIT = unkn
_AUX1 = 0
_AUX2 = 0
_AUX3 = 0
_TIMESTARTED = 15
_TEMP_RATE = -1
_TEMP_DELAY = -1
_KV = 40
_MA = 40
_RANGE_WL = 1.5406
_3DPLANE = 0
_V4_ADDITIONALDETECTOR = 257
_V4_PSD2THETA = 3.4139
_V4_PSDCHANNEL1 = 0
_V4_PSDAPERTURE = 12.68
_V4_PSDTYPE = 5
_V4_PSDFIXED = 0
_V4_COUNTERS_MASK = 4096
_V4_DRIVES_MASK = 0
_V4_ENCODERS_MASK = 0
_2THETACOUNTS = 1
; 2THETA  PSD
   5.0000        124
   5.1858        119
   5.3715        107
   5.5573         94
   5.7430         92
   5.9288         84
   6.1145         90
   6.3003         95
   6.4860        103
   6.6718         78
   6.8576         73
   7.0433         93
   7.2291         81
   7.4148         92
   7.6006         70
   7.7863         80
   7.9721        101
   8.1579         95
   8.3436        113
   8.5294        103
   8.7151         82
   8.9009        115
   9.0866        117
   9.2724        113
   9.4581        102
   9.6439        131
   9.8297        122
  10.0154        116
  10.2012        123
  10.3869         95
  10.5727        106
  10.7584        106
  10.9442        118
  11.1299        142
  11.3157        126
  11.5015        100
  11.6872         99
  11.8730        106
  12.0587        105
  12.2445        111
  12.4302        114
  12.6160        100
  12.8018        127
  12.9875        108
  13.1733        115
  13.3590        107
  13.5448         97
  13.7305         94
  13.9163         83
  14.1020         92
  14.2878         75
  14.4736         81
  14.6593         96
  14.8451         86
  15.0308         72
  15.2166         92
  15.4023         84
  15.5881         96
  15.7738         66
  15.9596         69
  16.1454         75
  16.3311         83
  16.5169         89
  16.7026         80
  16.8884         93
  17.0741         94
  17.2599         71
  17.4457         78
  17.6314         87
  17.8172         73
  18.0029         80
  18.1887         67
  18.3744         92
  18.5602         79
  18.7459         77
  18.9317         88
  19.1175         83
  19.3032         94
  19.4890         79
  19.6747         71
  19.8605         81
  20.0462        113
  20.2320         96
  20.4177         99
  20.6035         90
  20.7893        108
  20.9750        105
  21.1608         98
  21.3465        241
  21.5323        106
  21.7180        114
  21.9038        123
  22.0896         80
  22.2753         93
  22.4611        113
  22.6468         94
  22.8326         85
  23.0183         89
  23.2041        119
  23.3898         93
  23.5756         91
  23.7614        124
  23.9471         94
  24.1329        123
  24.3186         94
  24.5044        107
  24.6901         86
  24.8759        108
  25.0616         95
  25.2474        105
  25.4332         90
  25.6189         91
  25.8047        110
  25.9904         99
  26.1762        105
  26.3619         91
  26.5477         94
  26.7335         87
  26.9192         94
  27.1050         99
  27.2907        103
  27.4765        107
  27.6622         97
  27.8480         83
  28.0337         78
  28.2195         86
  28.4053         77
  28.5910         91
  28.7768         91
  28.9625         90
  29.1483         71
  29.3340         79
  29.5198         76
  29.7055         84
  29.8913         84
  30.0771         77
  30.2628         94
  30.4486        115
  30.6343         79
  30.8201         77
  31.0058         61
  31.1916         69
  31.3774         60
  31.5631         69
  31.7489         63
  31.9346         75
  32.1204         66
  32.3061         72
  32.4919         69
  32.6776         66
  32.8634         60
  33.0492         58
  33.2349         65
  33.4207         52
  33.6064         42
  33.7922         76
  33.9779         49
  34.1637         54
  34.3494         52
  34.5352         65
  34.7210         64
  34.9067         60
  35.0925         53
  35.2782         47
  35.4640         41
  35.6497         48
  35.8355         55
  36.0213         48
  36.2070         51
  36.3928         40
  36.5785         44
  36.7643         59
  36.9500         37
  37.1358         45
  37.3215         46
  37.5073         54
  37.6931         57
  37.8788         45
  38.0646         52
  38.2503         34
  38.4361         40
  38.6218         32
  38.8076         30
  38.9933         29
  39.1791         51
  39.3649         42
  39.5506         34
  39.7364         37
  39.9221         43
  40.1079         39
  40.2936         33
  40.4794         37
  40.6652         39
  40.8509         27
  41.0367         31
  41.2224         30
  41.4082         46
  41.5939         37
  41.7797         41
  41.9654         38
  42.1512         30
  42.3370         36
  42.5227         27
  42.7085         41
  42.8942         47
  43.0800         33
  43.2657         40
  43.4515         45
  43.6372         39
  43.8230         40
  44.0088         43
  44.1945         28
  44.3803         39
  44.5660         51
  44.7518         51
  44.9375         43
  45.1233         33
  45.3091         29
  45.4948         36
  45.6806         25
  45.8663         29
  46.0521         39
  46.2378         28
  46.4236         33
  46.6093         35
  46.7951         49
  46.9809         31
  47.1666         30
  47.3524         31
  47.5381         30
  47.7239         34
  47.9096         28
  48.0954         31
  48.2811         32
  48.4669         32
  48.6527         30
  48.8384         33
  49.0242         39
  49.2099         33
  49.3957         32
  49.5814         33
  49.7672         30
  49.9530         22
  50.1387         22
  50.3245         37
  50.5102         28
  50.6960         30
  50.8817         25
  51.0675         28
  51.2532         20
  51.4390         33
  51.6248         42
  51.8105         36
  51.9963         25
  52.1820         31
  52.3678         26
  52.5535         23
  52.7393         26
  52.9250         30
  53.1108         27
  53.2966         27
  53.4823         27
  53.6681         29
  53.8538         27
  54.0396         39
  54.2253         35
  54.4111         32
  54.5969         24
  54.7826         25
  54.9684         33
  55.1541         35
  55.3399         24
  55.5256         30
  55.7114         24
  55.8971         33
  56.0829         30
  56.2687         32
  56.4544         25
  56.6402         25
  56.8259         33
  57.0117         32
  57.1974         25
  57.3832         28
  57.5689         32
  57.7547         21
  57.9405         21
  58.1262         29
  58.3120         28
  58.4977         21
  58.6835         29
  58.8692         29
  59.0550         29
  59.2408         26
  59.4265         24
  59.6123         23
  59.7980         32
  59.9838         35
  60.0024         26