File: notebooks/data/xrd_data/ML_20220718_15_SJD_4_LaB6-2min.uxd
; (content of file Y:\Sam\Apurva-07-20-2022\puck4\ML_20220718_15_SJD_0_LaB6-2min.raw)
_FILEVERSION = 3
_SAMPLE = ML_20220718_15_SJD_0_LaB6-2min
_+SAMPLE =
_SITE = USA
_USER = Administrator
_GONIOMETER_CODE = 20
; Goniometer : D8 theta/2theta, stage : Unknown
_ATTACHMENTS_CODE = 0
_GONIOMETER_RADIUS = 200.5
_FIXED_DIVSLIT = 0.6
_FIXED_SAMPLESLIT = 0
_SOLLER_SLITS = 2
_FIXED_DETSLIT = 9.55
_MONOCHROMATOR = 0
; Incident beam monochromator : None
_SOLLER_SLITS_2 = N
_THIN_FILM = N
_BETA_FILTER = Y
_FIXED_ANTISLIT = 5.89
_ANALYZER_CODE = 0
; Received beam analyzer : None
_DATEMEASURED = "26-Jul-2022 09:49:29"
_WL_UNIT = A
_WL1 = 1.5406
_WL2 = 1.54439
_WL3 = 1.39222
_WLRATIO = 0.5
_ANODE = Cu
_V4_INF_CREATOR = XRDWizard
_V4_INF_CREATOR_VERSION = V2.9.0.22
_V4_INF_WIZARD_VERSION = V2.9.0.22
_V4_INF_WIZARD_ADDINS = V2.9.0.22
_V4_INF_WIZARD_DOCTYPE = XRD
_V4_INF_OSUSER = McQueenLab
_V4_INF_USER = Administrator
_V4_INF_SITE = USA
_V4_INF_SAMPLEID = ML_20220718_15_SJD_0_LaB6-2min

; Data for range 1
_DRIVE = COUPLED
_STEPTIME = 5.64
_STEPSIZE = 0.0185756
_STEPMODE = C
_START = 5
_THETA = 2.5
_2THETA = 5
_KHI = 0
_PHI = 0
_X = 0
_Y = 0
_Z = 0
_DETECTOR = 5
; Detector type : Unknown
_DETECTORSLIT = unkn
_AUX1 = 0
_AUX2 = 0
_AUX3 = 0
_TIMESTARTED = 15
_TEMP_RATE = -1
_TEMP_DELAY = -1
_KV = 40
_MA = 40
_RANGE_WL = 1.5406
_3DPLANE = 0
_V4_ADDITIONALDETECTOR = 257
_V4_PSD2THETA = 3.3706
_V4_PSDCHANNEL1 = 0
_V4_PSDAPERTURE = 12.68
_V4_PSDTYPE = 5
_V4_PSDFIXED = 0
_V4_COUNTERS_MASK = 4096
_V4_DRIVES_MASK = 0
_V4_ENCODERS_MASK = 0
_2THETACOUNTS = 1
; 2THETA  PSD
   5.0000        161
   5.1858        141
   5.3715        116
   5.5573         99
   5.7430         96
   5.9288        102
   6.1145         88
   6.3003         72
   6.4860        102
   6.6718         76
   6.8576         89
   7.0433         85
   7.2291         79
   7.4148         93
   7.6006         84
   7.7863         91
   7.9721         92
   8.1579         83
   8.3436         99
   8.5294         85
   8.7151         92
   8.9009         98
   9.0866         98
   9.2724        111
   9.4581         99
   9.6439        121
   9.8297        105
  10.0154        106
  10.2012        137
  10.3869        106
  10.5727        113
  10.7584        122
  10.9442        126
  11.1299        103
  11.3157        109
  11.5015         98
  11.6872        122
  11.8730        106
  12.0587        108
  12.2445        111
  12.4302        113
  12.6160        111
  12.8018         86
  12.9875        103
  13.1733         96
  13.3590         81
  13.5448         98
  13.7305        119
  13.9163         90
  14.1020         87
  14.2878         74
  14.4736         94
  14.6593         81
  14.8451         79
  15.0308         79
  15.2166         93
  15.4023         78
  15.5881         72
  15.7738         88
  15.9596         91
  16.1454         75
  16.3311         79
  16.5169        108
  16.7026         90
  16.8884         99
  17.0741         79
  17.2599         79
  17.4457         87
  17.6314         76
  17.8172         80
  18.0029         89
  18.1887         78
  18.3744         87
  18.5602         90
  18.7459         74
  18.9317         90
  19.1175         86
  19.3032         90
  19.4890         94
  19.6747         81
  19.8605         89
  20.0462         82
  20.2320         92
  20.4177         91
  20.6035         82
  20.7893         86
  20.9750        100
  21.1608        118
  21.3465        228
  21.5323         78
  21.7180         79
  21.9038         95
  22.0896        119
  22.2753        108
  22.4611        112
  22.6468         88
  22.8326         91
  23.0183        127
  23.2041         81
  23.3898         97
  23.5756        106
  23.7614         99
  23.9471         89
  24.1329        101
  24.3186        102
  24.5044        118
  24.6901        111
  24.8759        108
  25.0616        101
  25.2474        105
  25.4332         90
  25.6189        103
  25.8047         87
  25.9904        110
  26.1762        107
  26.3619        104
  26.5477         89
  26.7335         90
  26.9192         91
  27.1050         79
  27.2907         99
  27.4765         83
  27.6622         83
  27.8480         68
  28.0337         88
  28.2195         85
  28.4053         92
  28.5910        108
  28.7768         90
  28.9625         82
  29.1483         86
  29.3340         74
  29.5198         58
  29.7055         68
  29.8913         75
  30.0771         62
  30.2628         70
  30.4486        140
  30.6343         56
  30.8201         65
  31.0058         67
  31.1916         58
  31.3774         69
  31.5631         65
  31.7489         63
  31.9346         69
  32.1204         51
  32.3061         70
  32.4919         79
  32.6776         60
  32.8634         51
  33.0492         51
  33.2349         54
  33.4207         55
  33.6064         59
  33.7922         71
  33.9779         69
  34.1637         55
  34.3494         67
  34.5352         72
  34.7210         61
  34.9067         62
  35.0925         56
  35.2782         45
  35.4640         46
  35.6497         46
  35.8355         46
  36.0213         49
  36.2070         45
  36.3928         47
  36.5785         50
  36.7643         45
  36.9500         43
  37.1358         42
  37.3215         44
  37.5073         59
  37.6931         63
  37.8788         50
  38.0646         39
  38.2503         45
  38.4361         42
  38.6218         41
  38.8076         41
  38.9933         43
  39.1791         47
  39.3649         45
  39.5506         30
  39.7364         43
  39.9221         33
  40.1079         34
  40.2936         41
  40.4794         31
  40.6652         38
  40.8509         40
  41.0367         47
  41.2224         37
  41.4082         33
  41.5939         24
  41.7797         37
  41.9654         25
  42.1512         31
  42.3370         36
  42.5227         43
  42.7085         34
  42.8942         41
  43.0800         26
  43.2657         53
  43.4515         41
  43.6372         45
  43.8230         33
  44.0088         43
  44.1945         47
  44.3803         30
  44.5660         42
  44.7518         43
  44.9375         37
  45.1233         32
  45.3091         32
  45.4948         37
  45.6806         34
  45.8663         31
  46.0521         29
  46.2378         19
  46.4236         37
  46.6093         28
  46.7951         37
  46.9809         34
  47.1666         34
  47.3524         31
  47.5381         43
  47.7239         40
  47.9096         38
  48.0954         32
  48.2811         29
  48.4669         35
  48.6527         42
  48.8384         30
  49.0242         31
  49.2099         35
  49.3957         28
  49.5814         28
  49.7672         32
  49.9530         46
  50.1387         29
  50.3245         41
  50.5102         33
  50.6960         31
  50.8817         34
  51.0675         28
  51.2532         28
  51.4390         29
  51.6248         34
  51.8105         39
  51.9963         28
  52.1820         31
  52.3678         34
  52.5535         30
  52.7393         28
  52.9250         25
  53.1108         29
  53.2966         25
  53.4823         34
  53.6681         27
  53.8538         35
  54.0396         40
  54.2253         28
  54.4111         39
  54.5969         31
  54.7826         24
  54.9684         20
  55.1541         26
  55.3399         30
  55.5256         37
  55.7114         25
  55.8971         28
  56.0829         29
  56.2687         39
  56.4544         39
  56.6402         35
  56.8259         23
  57.0117         27
  57.1974         22
  57.3832         24
  57.5689         33
  57.7547         28
  57.9405         21
  58.1262         25
  58.3120         30
  58.4977         27
  58.6835         27
  58.8692         28
  59.0550         17
  59.2408         37
  59.4265         26
  59.6123         24
  59.7980         14
  59.9838         27
  60.0024         28