File: notebooks/data/xrd_data/ML_20220721_30_SJD_4_LaB6-4min.uxd
; (content of file Y:\Sam\Apurva-07-20-2022\puck1\ML_20220721_30_SJD_0_LaB6-4min.raw)
_FILEVERSION = 3
_SAMPLE = ML_20220721_30_SJD_0_LaB6-4min
_+SAMPLE =
_SITE = USA
_USER = Administrator
_GONIOMETER_CODE = 20
; Goniometer : D8 theta/2theta, stage : Unknown
_ATTACHMENTS_CODE = 0
_GONIOMETER_RADIUS = 200.5
_FIXED_DIVSLIT = 0.6
_FIXED_SAMPLESLIT = 0
_SOLLER_SLITS = 2
_FIXED_DETSLIT = 9.55
_MONOCHROMATOR = 0
; Incident beam monochromator : None
_SOLLER_SLITS_2 = N
_THIN_FILM = N
_BETA_FILTER = Y
_FIXED_ANTISLIT = 5.89
_ANALYZER_CODE = 0
; Received beam analyzer : None
_DATEMEASURED = "25-Jul-2022 16:07:01"
_WL_UNIT = A
_WL1 = 1.5406
_WL2 = 1.54439
_WL3 = 1.39222
_WLRATIO = 0.5
_ANODE = Cu
_V4_INF_CREATOR = XRDWizard
_V4_INF_CREATOR_VERSION = V2.9.0.22
_V4_INF_WIZARD_VERSION = V2.9.0.22
_V4_INF_WIZARD_ADDINS = V2.9.0.22
_V4_INF_WIZARD_DOCTYPE = XRD
_V4_INF_OSUSER = McQueenLab
_V4_INF_USER = Administrator
_V4_INF_SITE = USA
_V4_INF_SAMPLEID = ML_20220721_30_SJD_0_LaB6-4min

; Data for range 1
_DRIVE = COUPLED
_STEPTIME = 11.28
_STEPSIZE = 0.0185756
_STEPMODE = C
_START = 5
_THETA = 2.5
_2THETA = 5
_KHI = 0
_PHI = 0
_X = 0
_Y = 0
_Z = 0
_DETECTOR = 5
; Detector type : Unknown
_DETECTORSLIT = unkn
_AUX1 = 0
_AUX2 = 0
_AUX3 = 0
_TIMESTARTED = 16
_TEMP_RATE = -1
_TEMP_DELAY = -1
_KV = 40
_MA = 40
_RANGE_WL = 1.5406
_3DPLANE = 0
_V4_ADDITIONALDETECTOR = 257
_V4_PSD2THETA = 3.3674
_V4_PSDCHANNEL1 = 0
_V4_PSDAPERTURE = 12.68
_V4_PSDTYPE = 5
_V4_PSDFIXED = 0
_V4_COUNTERS_MASK = 4096
_V4_DRIVES_MASK = 0
_V4_ENCODERS_MASK = 0
_2THETACOUNTS = 1
; 2THETA  PSD
   5.0000        249
   5.1858        258
   5.3715        228
   5.5573        229
   5.7430        250
   5.9288        186
   6.1145        193
   6.3003        213
   6.4860        175
   6.6718        177
   6.8576        188
   7.0433        138
   7.2291        177
   7.4148        176
   7.6006        195
   7.7863        184
   7.9721        193
   8.1579        160
   8.3436        198
   8.5294        204
   8.7151        215
   8.9009        210
   9.0866        226
   9.2724        213
   9.4581        203
   9.6439        226
   9.8297        248
  10.0154        231
  10.2012        243
  10.3869        242
  10.5727        267
  10.7584        242
  10.9442        242
  11.1299        253
  11.3157        265
  11.5015        241
  11.6872        216
  11.8730        230
  12.0587        223
  12.2445        226
  12.4302        206
  12.6160        184
  12.8018        243
  12.9875        191
  13.1733        195
  13.3590        196
  13.5448        203
  13.7305        237
  13.9163        177
  14.1020        191
  14.2878        155
  14.4736        185
  14.6593        174
  14.8451        171
  15.0308        148
  15.2166        189
  15.4023        164
  15.5881        136
  15.7738        155
  15.9596        160
  16.1454        163
  16.3311        164
  16.5169        134
  16.7026        185
  16.8884        146
  17.0741        154
  17.2599        160
  17.4457        162
  17.6314        181
  17.8172        172
  18.0029        163
  18.1887        166
  18.3744        176
  18.5602        175
  18.7459        179
  18.9317        164
  19.1175        178
  19.3032        159
  19.4890        200
  19.6747        192
  19.8605        191
  20.0462        192
  20.2320        190
  20.4177        182
  20.6035        182
  20.7893        200
  20.9750        188
  21.1608        265
  21.3465        534
  21.5323        235
  21.7180        193
  21.9038        197
  22.0896        205
  22.2753        202
  22.4611        178
  22.6468        192
  22.8326        201
  23.0183        218
  23.2041        216
  23.3898        175
  23.5756        213
  23.7614        196
  23.9471        191
  24.1329        200
  24.3186        201
  24.5044        219
  24.6901        182
  24.8759        208
  25.0616        194
  25.2474        192
  25.4332        181
  25.6189        198
  25.8047        188
  25.9904        179
  26.1762        196
  26.3619        207
  26.5477        169
  26.7335        183
  26.9192        188
  27.1050        177
  27.2907        244
  27.4765        202
  27.6622        175
  27.8480        193
  28.0337        172
  28.2195        171
  28.4053        182
  28.5910        142
  28.7768        154
  28.9625        143
  29.1483        177
  29.3340        146
  29.5198        152
  29.7055        179
  29.8913        139
  30.0771        169
  30.2628        187
  30.4486        260
  30.6343        131
  30.8201        134
  31.0058        148
  31.1916        119
  31.3774        127
  31.5631        158
  31.7489        144
  31.9346        138
  32.1204        130
  32.3061        131
  32.4919        141
  32.6776        126
  32.8634        112
  33.0492        101
  33.2349        132
  33.4207        123
  33.6064        111
  33.7922        139
  33.9779        117
  34.1637        111
  34.3494        116
  34.5352        134
  34.7210        142
  34.9067        135
  35.0925        110
  35.2782        129
  35.4640        111
  35.6497        105
  35.8355        107
  36.0213         91
  36.2070        104
  36.3928        115
  36.5785        116
  36.7643         88
  36.9500         95
  37.1358         98
  37.3215         87
  37.5073        117
  37.6931        110
  37.8788         80
  38.0646         71
  38.2503         89
  38.4361         88
  38.6218         82
  38.8076         85
  38.9933         64
  39.1791         79
  39.3649         76
  39.5506         92
  39.7364         77
  39.9221         78
  40.1079         70
  40.2936         91
  40.4794         79
  40.6652         58
  40.8509         80
  41.0367         88
  41.2224         72
  41.4082         79
  41.5939         77
  41.7797         79
  41.9654         74
  42.1512         87
  42.3370         84
  42.5227         89
  42.7085         82
  42.8942         92
  43.0800         91
  43.2657         98
  43.4515         85
  43.6372        100
  43.8230         81
  44.0088         75
  44.1945         63
  44.3803         70
  44.5660         78
  44.7518         86
  44.9375         60
  45.1233         72
  45.3091         77
  45.4948         72
  45.6806         69
  45.8663         64
  46.0521         82
  46.2378         74
  46.4236         67
  46.6093         76
  46.7951         62
  46.9809         65
  47.1666         71
  47.3524         61
  47.5381         81
  47.7239         63
  47.9096         61
  48.0954         67
  48.2811         68
  48.4669         66
  48.6527         66
  48.8384         75
  49.0242         89
  49.2099         72
  49.3957         62
  49.5814         79
  49.7672         68
  49.9530         53
  50.1387         61
  50.3245         77
  50.5102         51
  50.6960         50
  50.8817         58
  51.0675         49
  51.2532         64
  51.4390         56
  51.6248         52
  51.8105         89
  51.9963         58
  52.1820         58
  52.3678         55
  52.5535         64
  52.7393         57
  52.9250         69
  53.1108         60
  53.2966         58
  53.4823         59
  53.6681         67
  53.8538         54
  54.0396         62
  54.2253         67
  54.4111         63
  54.5969         57
  54.7826         59
  54.9684         56
  55.1541         49
  55.3399         40
  55.5256         42
  55.7114         39
  55.8971         58
  56.0829         68
  56.2687         63
  56.4544         61
  56.6402         48
  56.8259         54
  57.0117         59
  57.1974         58
  57.3832         68
  57.5689         59
  57.7547         52
  57.9405         69
  58.1262         52
  58.3120         51
  58.4977         61
  58.6835         52
  58.8692         71
  59.0550         55
  59.2408         51
  59.4265         35
  59.6123         43
  59.7980         59
  59.9838         57
  60.0024         55