File: notebooks/data/xrd_data/ML_20220720_23_SJD_4_LaB6-1min.csv
;,2THETA,
5.0000,99
5.1858,84
5.3715,89
5.5573,100
5.7430,71
5.9288,81
6.1145,68
6.3003,72
6.4860,58
6.6718,61
6.8576,67
7.0433,67
7.2291,60
7.4148,75
7.6006,63
7.7863,58
7.9721,75
8.1579,57
8.3436,62
8.5294,81
8.7151,83
8.9009,77
9.0866,77
9.2724,81
9.4581,80
9.6439,76
9.8297,88
10.0154,84
10.2012,88
10.3869,93
10.5727,86
10.7584,72
10.9442,91
11.1299,91
11.3157,81
11.5015,94
11.6872,77
11.8730,92
12.0587,73
12.2445,85
12.4302,94
12.6160,76
12.8018,73
12.9875,73
13.1733,75
13.3590,65
13.5448,63
13.7305,66
13.9163,59
14.1020,68
14.2878,66
14.4736,81
14.6593,59
14.8451,54
15.0308,56
15.2166,58
15.4023,48
15.5881,66
15.7738,60
15.9596,78
16.1454,64
16.3311,55
16.5169,65
16.7026,54
16.8884,62
17.0741,65
17.2599,65
17.4457,60
17.6314,56
17.8172,79
18.0029,43
18.1887,53
18.3744,48
18.5602,63
18.7459,65
18.9317,64
19.1175,54
19.3032,59
19.4890,55
19.6747,67
19.8605,64
20.0462,65
20.2320,56
20.4177,70
20.6035,74
20.7893,51
20.9750,68
21.1608,82
21.3465,174
21.5323,78
21.7180,67
21.9038,82
22.0896,52
22.2753,70
22.4611,80
22.6468,72
22.8326,75
23.0183,77
23.2041,80
23.3898,78
23.5756,61
23.7614,76
23.9471,65
24.1329,70
24.3186,93
24.5044,77
24.6901,69
24.8759,68
25.0616,69
25.2474,74
25.4332,73
25.6189,66
25.8047,82
25.9904,81
26.1762,75
26.3619,66
26.5477,73
26.7335,70
26.9192,59
27.1050,70
27.2907,94
27.4765,70
27.6622,71
27.8480,64
28.0337,60
28.2195,61
28.4053,67
28.5910,45
28.7768,54
28.9625,64
29.1483,62
29.3340,72
29.5198,52
29.7055,52
29.8913,70
30.0771,56
30.2628,73
30.4486,90
30.6343,47
30.8201,56
31.0058,42
31.1916,54
31.3774,57
31.5631,54
31.7489,51
31.9346,44
32.1204,44
32.3061,47
32.4919,56
32.6776,56
32.8634,54
33.0492,43
33.2349,45
33.4207,50
33.6064,40
33.7922,41
33.9779,44
34.1637,32
34.3494,56
34.5352,53
34.7210,49
34.9067,38
35.0925,43
35.2782,31
35.4640,45
35.6497,33
35.8355,33
36.0213,38
36.2070,47
36.3928,37
36.5785,28
36.7643,35
36.9500,29
37.1358,35
37.3215,38
37.5073,35
37.6931,34
37.8788,38
38.0646,31
38.2503,18
38.4361,25
38.6218,33
38.8076,36
38.9933,41
39.1791,25
39.3649,30
39.5506,28
39.7364,28
39.9221,28
40.1079,27
40.2936,20
40.4794,32
40.6652,30
40.8509,35
41.0367,37
41.2224,24
41.4082,21
41.5939,26
41.7797,35
41.9654,21
42.1512,31
42.3370,35
42.5227,30
42.7085,32
42.8942,32
43.0800,31
43.2657,31
43.4515,26
43.6372,31
43.8230,27
44.0088,19
44.1945,22
44.3803,29
44.5660,41
44.7518,20
44.9375,36
45.1233,23
45.3091,22
45.4948,31
45.6806,26
45.8663,25
46.0521,31
46.2378,32
46.4236,23
46.6093,25
46.7951,29
46.9809,27
47.1666,21
47.3524,16
47.5381,21
47.7239,13
47.9096,18
48.0954,17
48.2811,18
48.4669,30
48.6527,25
48.8384,32
49.0242,21
49.2099,22
49.3957,23
49.5814,32
49.7672,24
49.9530,23
50.1387,23
50.3245,19
50.5102,18
50.6960,23
50.8817,14
51.0675,21
51.2532,25
51.4390,32
51.6248,22
51.8105,18
51.9963,21
52.1820,27
52.3678,13
52.5535,29
52.7393,21
52.9250,17
53.1108,25
53.2966,25
53.4823,14
53.6681,22
53.8538,23
54.0396,26
54.2253,23
54.4111,22
54.5969,13
54.7826,19
54.9684,27
55.1541,22
55.3399,30
55.5256,27
55.7114,18
55.8971,26
56.0829,24
56.2687,19
56.4544,18
56.6402,24
56.8259,24
57.0117,21
57.1974,19
57.3832,20
57.5689,18
57.7547,24
57.9405,23
58.1262,21
58.3120,17
58.4977,24
58.6835,13
58.8692,23
59.0550,23
59.2408,26
59.4265,19
59.6123,20
59.7980,27
59.9838,25
60.0024,18