File: notebooks/data/xrd_data/ML_20220718_50_SJD_4_LaB6-2min.uxd
; (content of file Y:\Sam\Apurva-07-20-2022\puck4\ML_20220718_50_SJD_4_LaB6-2min.raw)
_FILEVERSION = 3
_SAMPLE = ML_20220718_50_SJD_4_LaB6-2min
_+SAMPLE =
_SITE = USA
_USER = Administrator
_GONIOMETER_CODE = 20
; Goniometer : D8 theta/2theta, stage : Unknown
_ATTACHMENTS_CODE = 0
_GONIOMETER_RADIUS = 200.5
_FIXED_DIVSLIT = 0.6
_FIXED_SAMPLESLIT = 0
_SOLLER_SLITS = 2
_FIXED_DETSLIT = 9.55
_MONOCHROMATOR = 0
; Incident beam monochromator : None
_SOLLER_SLITS_2 = N
_THIN_FILM = N
_BETA_FILTER = Y
_FIXED_ANTISLIT = 5.89
_ANALYZER_CODE = 0
; Received beam analyzer : None
_DATEMEASURED = "26-Jul-2022 12:27:38"
_WL_UNIT = A
_WL1 = 1.5406
_WL2 = 1.54439
_WL3 = 1.39222
_WLRATIO = 0.5
_ANODE = Cu
_V4_INF_CREATOR = XRDWizard
_V4_INF_CREATOR_VERSION = V2.9.0.22
_V4_INF_WIZARD_VERSION = V2.9.0.22
_V4_INF_WIZARD_ADDINS = V2.9.0.22
_V4_INF_WIZARD_DOCTYPE = XRD
_V4_INF_OSUSER = McQueenLab
_V4_INF_USER = Administrator
_V4_INF_SITE = USA
_V4_INF_SAMPLEID = ML_20220718_50_SJD_4_LaB6-2min

; Data for range 1
_DRIVE = COUPLED
_STEPTIME = 5.64
_STEPSIZE = 0.0185756
_STEPMODE = C
_START = 5
_THETA = 2.5
_2THETA = 5
_KHI = 0
_PHI = 0
_X = 0
_Y = 0
_Z = 0
_DETECTOR = 5
; Detector type : Unknown
_DETECTORSLIT = unkn
_AUX1 = 0
_AUX2 = 0
_AUX3 = 0
_TIMESTARTED = 15
_TEMP_RATE = -1
_TEMP_DELAY = -1
_KV = 40
_MA = 40
_RANGE_WL = 1.5406
_3DPLANE = 0
_V4_ADDITIONALDETECTOR = 257
_V4_PSD2THETA = 3.4183
_V4_PSDCHANNEL1 = 0
_V4_PSDAPERTURE = 12.68
_V4_PSDTYPE = 5
_V4_PSDFIXED = 0
_V4_COUNTERS_MASK = 4096
_V4_DRIVES_MASK = 0
_V4_ENCODERS_MASK = 0
_2THETACOUNTS = 1
; 2THETA  PSD
   5.0000        115
   5.1858        106
   5.3715        100
   5.5573        126
   5.7430         85
   5.9288         91
   6.1145        103
   6.3003         97
   6.4860         88
   6.6718         89
   6.8576         77
   7.0433         80
   7.2291         72
   7.4148         80
   7.6006         78
   7.7863         85
   7.9721         99
   8.1579         94
   8.3436         97
   8.5294         85
   8.7151        113
   8.9009        100
   9.0866        109
   9.2724         85
   9.4581        135
   9.6439        133
   9.8297        115
  10.0154         99
  10.2012         99
  10.3869        114
  10.5727        114
  10.7584        100
  10.9442        120
  11.1299        111
  11.3157        126
  11.5015        128
  11.6872        121
  11.8730        120
  12.0587        101
  12.2445        103
  12.4302        134
  12.6160        106
  12.8018        103
  12.9875         98
  13.1733         90
  13.3590         76
  13.5448         93
  13.7305         97
  13.9163         95
  14.1020         93
  14.2878         99
  14.4736         80
  14.6593         98
  14.8451         60
  15.0308         64
  15.2166         87
  15.4023         88
  15.5881         89
  15.7738         83
  15.9596         81
  16.1454         83
  16.3311         93
  16.5169         86
  16.7026         81
  16.8884         82
  17.0741         77
  17.2599         76
  17.4457         94
  17.6314         89
  17.8172         88
  18.0029         79
  18.1887         91
  18.3744         88
  18.5602         65
  18.7459         68
  18.9317         84
  19.1175         83
  19.3032         85
  19.4890         94
  19.6747        107
  19.8605         95
  20.0462         76
  20.2320         89
  20.4177         85
  20.6035         80
  20.7893         99
  20.9750         68
  21.1608        114
  21.3465        223
  21.5323         81
  21.7180         96
  21.9038         95
  22.0896        102
  22.2753         97
  22.4611         96
  22.6468         84
  22.8326        111
  23.0183        101
  23.2041        104
  23.3898         97
  23.5756         93
  23.7614         91
  23.9471        118
  24.1329         87
  24.3186        119
  24.5044        103
  24.6901        109
  24.8759         96
  25.0616         88
  25.2474         99
  25.4332        110
  25.6189         84
  25.8047         86
  25.9904         94
  26.1762         83
  26.3619        103
  26.5477         88
  26.7335         92
  26.9192         99
  27.1050         88
  27.2907         98
  27.4765         92
  27.6622         90
  27.8480        105
  28.0337         84
  28.2195         81
  28.4053         71
  28.5910         71
  28.7768        102
  28.9625         84
  29.1483         88
  29.3340         80
  29.5198         69
  29.7055         83
  29.8913         87
  30.0771         82
  30.2628         88
  30.4486        129
  30.6343         61
  30.8201         67
  31.0058         52
  31.1916         71
  31.3774         69
  31.5631         65
  31.7489         65
  31.9346         61
  32.1204         69
  32.3061         49
  32.4919         72
  32.6776         58
  32.8634         52
  33.0492         57
  33.2349         60
  33.4207         61
  33.6064         53
  33.7922         60
  33.9779         49
  34.1637         71
  34.3494         44
  34.5352         69
  34.7210         70
  34.9067         59
  35.0925         56
  35.2782         60
  35.4640         53
  35.6497         46
  35.8355         48
  36.0213         48
  36.2070         59
  36.3928         47
  36.5785         45
  36.7643         45
  36.9500         55
  37.1358         43
  37.3215         41
  37.5073         58
  37.6931         49
  37.8788         41
  38.0646         34
  38.2503         46
  38.4361         41
  38.6218         33
  38.8076         37
  38.9933         32
  39.1791         36
  39.3649         35
  39.5506         43
  39.7364         55
  39.9221         38
  40.1079         22
  40.2936         35
  40.4794         39
  40.6652         35
  40.8509         42
  41.0367         43
  41.2224         42
  41.4082         47
  41.5939         40
  41.7797         37
  41.9654         37
  42.1512         34
  42.3370         30
  42.5227         38
  42.7085         39
  42.8942         33
  43.0800         40
  43.2657         36
  43.4515         35
  43.6372         64
  43.8230         33
  44.0088         26
  44.1945         39
  44.3803         35
  44.5660         49
  44.7518         39
  44.9375         34
  45.1233         32
  45.3091         40
  45.4948         31
  45.6806         29
  45.8663         35
  46.0521         35
  46.2378         31
  46.4236         30
  46.6093         39
  46.7951         25
  46.9809         36
  47.1666         25
  47.3524         30
  47.5381         34
  47.7239         36
  47.9096         32
  48.0954         39
  48.2811         40
  48.4669         31
  48.6527         30
  48.8384         33
  49.0242         47
  49.2099         32
  49.3957         35
  49.5814         26
  49.7672         28
  49.9530         31
  50.1387         32
  50.3245         39
  50.5102         31
  50.6960         25
  50.8817         20
  51.0675         29
  51.2532         26
  51.4390         34
  51.6248         32
  51.8105         37
  51.9963         29
  52.1820         22
  52.3678         27
  52.5535         33
  52.7393         43
  52.9250         26
  53.1108         23
  53.2966         25
  53.4823         30
  53.6681         24
  53.8538         24
  54.0396         41
  54.2253         33
  54.4111         25
  54.5969         26
  54.7826         27
  54.9684         24
  55.1541         20
  55.3399         21
  55.5256         28
  55.7114         26
  55.8971         31
  56.0829         32
  56.2687         36
  56.4544         21
  56.6402         33
  56.8259         31
  57.0117         26
  57.1974         39
  57.3832         20
  57.5689         30
  57.7547         26
  57.9405         25
  58.1262         31
  58.3120         20
  58.4977         18
  58.6835         34
  58.8692         32
  59.0550         29
  59.2408         23
  59.4265         26
  59.6123         24
  59.7980         26
  59.9838         27
  60.0024         22