File: notebooks/data/xrd_data/ML_20220718_52_SJD_4_LaB6-2min.uxd
; (content of file Y:\Sam\Apurva-07-20-2022\puck4\ML_20220718_52_SJD_4_LaB6-2min.raw)
_FILEVERSION = 3
_SAMPLE = ML_20220718_52_SJD_4_LaB6-2min
_+SAMPLE =
_SITE = USA
_USER = Administrator
_GONIOMETER_CODE = 20
; Goniometer : D8 theta/2theta, stage : Unknown
_ATTACHMENTS_CODE = 0
_GONIOMETER_RADIUS = 200.5
_FIXED_DIVSLIT = 0.6
_FIXED_SAMPLESLIT = 0
_SOLLER_SLITS = 2
_FIXED_DETSLIT = 9.55
_MONOCHROMATOR = 0
; Incident beam monochromator : None
_SOLLER_SLITS_2 = N
_THIN_FILM = N
_BETA_FILTER = Y
_FIXED_ANTISLIT = 5.89
_ANALYZER_CODE = 0
; Received beam analyzer : None
_DATEMEASURED = "26-Jul-2022 12:32:25"
_WL_UNIT = A
_WL1 = 1.5406
_WL2 = 1.54439
_WL3 = 1.39222
_WLRATIO = 0.5
_ANODE = Cu
_V4_INF_CREATOR = XRDWizard
_V4_INF_CREATOR_VERSION = V2.9.0.22
_V4_INF_WIZARD_VERSION = V2.9.0.22
_V4_INF_WIZARD_ADDINS = V2.9.0.22
_V4_INF_WIZARD_DOCTYPE = XRD
_V4_INF_OSUSER = McQueenLab
_V4_INF_USER = Administrator
_V4_INF_SITE = USA
_V4_INF_SAMPLEID = ML_20220718_52_SJD_4_LaB6-2min

; Data for range 1
_DRIVE = COUPLED
_STEPTIME = 5.64
_STEPSIZE = 0.0185756
_STEPMODE = C
_START = 5
_THETA = 2.5
_2THETA = 5
_KHI = 0
_PHI = 0
_X = 0
_Y = 0
_Z = 0
_DETECTOR = 5
; Detector type : Unknown
_DETECTORSLIT = unkn
_AUX1 = 0
_AUX2 = 0
_AUX3 = 0
_TIMESTARTED = 14
_TEMP_RATE = -1
_TEMP_DELAY = -1
_KV = 40
_MA = 40
_RANGE_WL = 1.5406
_3DPLANE = 0
_V4_ADDITIONALDETECTOR = 257
_V4_PSD2THETA = 3.4137
_V4_PSDCHANNEL1 = 0
_V4_PSDAPERTURE = 12.68
_V4_PSDTYPE = 5
_V4_PSDFIXED = 0
_V4_COUNTERS_MASK = 4096
_V4_DRIVES_MASK = 0
_V4_ENCODERS_MASK = 0
_2THETACOUNTS = 1
; 2THETA  PSD
   5.0000        140
   5.1858        137
   5.3715        100
   5.5573        100
   5.7430        106
   5.9288         99
   6.1145         76
   6.3003        113
   6.4860         95
   6.6718         76
   6.8576         79
   7.0433         80
   7.2291         67
   7.4148         67
   7.6006         88
   7.7863         77
   7.9721         88
   8.1579         89
   8.3436        108
   8.5294         95
   8.7151         84
   8.9009         90
   9.0866        108
   9.2724         99
   9.4581        109
   9.6439        118
   9.8297        122
  10.0154        105
  10.2012        123
  10.3869        101
  10.5727        100
  10.7584        118
  10.9442        132
  11.1299        121
  11.3157        106
  11.5015        123
  11.6872        124
  11.8730        116
  12.0587         97
  12.2445        123
  12.4302        107
  12.6160        128
  12.8018         97
  12.9875        115
  13.1733        108
  13.3590        102
  13.5448        113
  13.7305         92
  13.9163        107
  14.1020         89
  14.2878         95
  14.4736         80
  14.6593         87
  14.8451         86
  15.0308         77
  15.2166         87
  15.4023         82
  15.5881         90
  15.7738         80
  15.9596         75
  16.1454         88
  16.3311         90
  16.5169         90
  16.7026         99
  16.8884         63
  17.0741         75
  17.2599        102
  17.4457         82
  17.6314         85
  17.8172         69
  18.0029         90
  18.1887         74
  18.3744         88
  18.5602         74
  18.7459         76
  18.9317         65
  19.1175         88
  19.3032         81
  19.4890         82
  19.6747         99
  19.8605         81
  20.0462         90
  20.2320         81
  20.4177         96
  20.6035         93
  20.7893         79
  20.9750         92
  21.1608        138
  21.3465        247
  21.5323        123
  21.7180        102
  21.9038        122
  22.0896        101
  22.2753         71
  22.4611        101
  22.6468         85
  22.8326        126
  23.0183        107
  23.2041        100
  23.3898         92
  23.5756         98
  23.7614        108
  23.9471        110
  24.1329        119
  24.3186        132
  24.5044         92
  24.6901        107
  24.8759        106
  25.0616         87
  25.2474         89
  25.4332        112
  25.6189         95
  25.8047        103
  25.9904        103
  26.1762         81
  26.3619         96
  26.5477         88
  26.7335         85
  26.9192        102
  27.1050         98
  27.2907        109
  27.4765         86
  27.6622         90
  27.8480         70
  28.0337         80
  28.2195         81
  28.4053         69
  28.5910         84
  28.7768         92
  28.9625         73
  29.1483         78
  29.3340         83
  29.5198         58
  29.7055         75
  29.8913         69
  30.0771         83
  30.2628         95
  30.4486        115
  30.6343         86
  30.8201         61
  31.0058         81
  31.1916         61
  31.3774         62
  31.5631         72
  31.7489         64
  31.9346         53
  32.1204         54
  32.3061         60
  32.4919         60
  32.6776         68
  32.8634         61
  33.0492         65
  33.2349         52
  33.4207         57
  33.6064         58
  33.7922         49
  33.9779         50
  34.1637         63
  34.3494         49
  34.5352         56
  34.7210         62
  34.9067         57
  35.0925         52
  35.2782         54
  35.4640         50
  35.6497         48
  35.8355         35
  36.0213         42
  36.2070         60
  36.3928         53
  36.5785         40
  36.7643         43
  36.9500         56
  37.1358         44
  37.3215         57
  37.5073         51
  37.6931         42
  37.8788         31
  38.0646         39
  38.2503         45
  38.4361         42
  38.6218         53
  38.8076         38
  38.9933         32
  39.1791         37
  39.3649         41
  39.5506         47
  39.7364         33
  39.9221         30
  40.1079         40
  40.2936         42
  40.4794         32
  40.6652         42
  40.8509         37
  41.0367         39
  41.2224         36
  41.4082         34
  41.5939         42
  41.7797         36
  41.9654         40
  42.1512         44
  42.3370         38
  42.5227         36
  42.7085         35
  42.8942         44
  43.0800         41
  43.2657         42
  43.4515         49
  43.6372         51
  43.8230         34
  44.0088         25
  44.1945         40
  44.3803         34
  44.5660         54
  44.7518         30
  44.9375         38
  45.1233         30
  45.3091         35
  45.4948         36
  45.6806         38
  45.8663         40
  46.0521         18
  46.2378         36
  46.4236         34
  46.6093         38
  46.7951         26
  46.9809         20
  47.1666         38
  47.3524         30
  47.5381         37
  47.7239         38
  47.9096         29
  48.0954         32
  48.2811         18
  48.4669         24
  48.6527         32
  48.8384         38
  49.0242         41
  49.2099         25
  49.3957         35
  49.5814         24
  49.7672         28
  49.9530         26
  50.1387         36
  50.3245         40
  50.5102         34
  50.6960         30
  50.8817         26
  51.0675         31
  51.2532         28
  51.4390         32
  51.6248         27
  51.8105         29
  51.9963         17
  52.1820         30
  52.3678         31
  52.5535         32
  52.7393         28
  52.9250         23
  53.1108         26
  53.2966         33
  53.4823         27
  53.6681         36
  53.8538         30
  54.0396         18
  54.2253         30
  54.4111         36
  54.5969         29
  54.7826         24
  54.9684         31
  55.1541         25
  55.3399         32
  55.5256         29
  55.7114         21
  55.8971         31
  56.0829         26
  56.2687         32
  56.4544         32
  56.6402         33
  56.8259         25
  57.0117         21
  57.1974         34
  57.3832         29
  57.5689         31
  57.7547         38
  57.9405         26
  58.1262         25
  58.3120         31
  58.4977         21
  58.6835         22
  58.8692         26
  59.0550         25
  59.2408         21
  59.4265         21
  59.6123         19
  59.7980         28
  59.9838         27
  60.0024         27