File: notebooks/data/xrd_data/ML_20220718_32_SJD_4_LaB6-2min.uxd
; (content of file Y:\Sam\Apurva-07-20-2022\puck4\ML_20220718_32_SJD_0_LaB6-2min.raw)
_FILEVERSION = 3
_SAMPLE = ML_20220718_32_SJD_0_LaB6-2min
_+SAMPLE =
_SITE = USA
_USER = Administrator
_GONIOMETER_CODE = 20
; Goniometer : D8 theta/2theta, stage : Unknown
_ATTACHMENTS_CODE = 0
_GONIOMETER_RADIUS = 200.5
_FIXED_DIVSLIT = 0.6
_FIXED_SAMPLESLIT = 0
_SOLLER_SLITS = 2
_FIXED_DETSLIT = 9.55
_MONOCHROMATOR = 0
; Incident beam monochromator : None
_SOLLER_SLITS_2 = N
_THIN_FILM = N
_BETA_FILTER = Y
_FIXED_ANTISLIT = 5.89
_ANALYZER_CODE = 0
; Received beam analyzer : None
_DATEMEASURED = "26-Jul-2022 09:08:50"
_WL_UNIT = A
_WL1 = 1.5406
_WL2 = 1.54439
_WL3 = 1.39222
_WLRATIO = 0.5
_ANODE = Cu
_V4_INF_CREATOR = XRDWizard
_V4_INF_CREATOR_VERSION = V2.9.0.22
_V4_INF_WIZARD_VERSION = V2.9.0.22
_V4_INF_WIZARD_ADDINS = V2.9.0.22
_V4_INF_WIZARD_DOCTYPE = XRD
_V4_INF_OSUSER = McQueenLab
_V4_INF_USER = Administrator
_V4_INF_SITE = USA
_V4_INF_SAMPLEID = ML_20220718_32_SJD_0_LaB6-2min

; Data for range 1
_DRIVE = COUPLED
_STEPTIME = 5.64
_STEPSIZE = 0.0185756
_STEPMODE = C
_START = 5
_THETA = 2.5
_2THETA = 5
_KHI = 0
_PHI = 0
_X = 0
_Y = 0
_Z = 0
_DETECTOR = 5
; Detector type : Unknown
_DETECTORSLIT = unkn
_AUX1 = 0
_AUX2 = 0
_AUX3 = 0
_TIMESTARTED = 15
_TEMP_RATE = -1
_TEMP_DELAY = -1
_KV = 40
_MA = 40
_RANGE_WL = 1.5406
_3DPLANE = 0
_V4_ADDITIONALDETECTOR = 257
_V4_PSD2THETA = 3.4187
_V4_PSDCHANNEL1 = 0
_V4_PSDAPERTURE = 12.68
_V4_PSDTYPE = 5
_V4_PSDFIXED = 0
_V4_COUNTERS_MASK = 4096
_V4_DRIVES_MASK = 0
_V4_ENCODERS_MASK = 0
_2THETACOUNTS = 1
; 2THETA  PSD
   5.0000        139
   5.1858        122
   5.3715        100
   5.5573        124
   5.7430        103
   5.9288        109
   6.1145         92
   6.3003        102
   6.4860         93
   6.6718         84
   6.8576         76
   7.0433         86
   7.2291        106
   7.4148         68
   7.6006         70
   7.7863         74
   7.9721        107
   8.1579         91
   8.3436         84
   8.5294        101
   8.7151        101
   8.9009        114
   9.0866        120
   9.2724        106
   9.4581        116
   9.6439        122
   9.8297        120
  10.0154        113
  10.2012        139
  10.3869        134
  10.5727        118
  10.7584        104
  10.9442        122
  11.1299        119
  11.3157        109
  11.5015        123
  11.6872        105
  11.8730        128
  12.0587        106
  12.2445        113
  12.4302        116
  12.6160        108
  12.8018        117
  12.9875        114
  13.1733        107
  13.3590        109
  13.5448         94
  13.7305        104
  13.9163         87
  14.1020         84
  14.2878        103
  14.4736         90
  14.6593         91
  14.8451         67
  15.0308         84
  15.2166         86
  15.4023         77
  15.5881         81
  15.7738         70
  15.9596         77
  16.1454         81
  16.3311         96
  16.5169         82
  16.7026         77
  16.8884         74
  17.0741         89
  17.2599         91
  17.4457         82
  17.6314         91
  17.8172         73
  18.0029         89
  18.1887         83
  18.3744         88
  18.5602         79
  18.7459         90
  18.9317         72
  19.1175         93
  19.3032         96
  19.4890         94
  19.6747         86
  19.8605         81
  20.0462         80
  20.2320        103
  20.4177         89
  20.6035         89
  20.7893        101
  20.9750        112
  21.1608         89
  21.3465        230
  21.5323        101
  21.7180         89
  21.9038        106
  22.0896         89
  22.2753         76
  22.4611        101
  22.6468        106
  22.8326         94
  23.0183        110
  23.2041         98
  23.3898         86
  23.5756        100
  23.7614        124
  23.9471        102
  24.1329         93
  24.3186        114
  24.5044         92
  24.6901        103
  24.8759         97
  25.0616         89
  25.2474        105
  25.4332         98
  25.6189        112
  25.8047         91
  25.9904        112
  26.1762        114
  26.3619         94
  26.5477        112
  26.7335         99
  26.9192         97
  27.1050         86
  27.2907        134
  27.4765         97
  27.6622         91
  27.8480         88
  28.0337         95
  28.2195         83
  28.4053         73
  28.5910         79
  28.7768         78
  28.9625         81
  29.1483         74
  29.3340         77
  29.5198         77
  29.7055         84
  29.8913         77
  30.0771         95
  30.2628         75
  30.4486        129
  30.6343         82
  30.8201         70
  31.0058         85
  31.1916         66
  31.3774         62
  31.5631         75
  31.7489         72
  31.9346         72
  32.1204         58
  32.3061         69
  32.4919         63
  32.6776         62
  32.8634         64
  33.0492         59
  33.2349         49
  33.4207         52
  33.6064         58
  33.7922         67
  33.9779         56
  34.1637         57
  34.3494         53
  34.5352         76
  34.7210         69
  34.9067         60
  35.0925         57
  35.2782         41
  35.4640         50
  35.6497         58
  35.8355         55
  36.0213         47
  36.2070         27
  36.3928         46
  36.5785         50
  36.7643         54
  36.9500         50
  37.1358         38
  37.3215         53
  37.5073         52
  37.6931         47
  37.8788         39
  38.0646         56
  38.2503         40
  38.4361         34
  38.6218         42
  38.8076         42
  38.9933         35
  39.1791         48
  39.3649         37
  39.5506         34
  39.7364         44
  39.9221         49
  40.1079         45
  40.2936         32
  40.4794         38
  40.6652         31
  40.8509         33
  41.0367         38
  41.2224         33
  41.4082         51
  41.5939         34
  41.7797         35
  41.9654         33
  42.1512         38
  42.3370         46
  42.5227         31
  42.7085         36
  42.8942         35
  43.0800         35
  43.2657         45
  43.4515         41
  43.6372         40
  43.8230         29
  44.0088         52
  44.1945         40
  44.3803         35
  44.5660         37
  44.7518         35
  44.9375         29
  45.1233         33
  45.3091         36
  45.4948         39
  45.6806         34
  45.8663         30
  46.0521         40
  46.2378         42
  46.4236         27
  46.6093         27
  46.7951         29
  46.9809         22
  47.1666         44
  47.3524         31
  47.5381         35
  47.7239         39
  47.9096         29
  48.0954         45
  48.2811         34
  48.4669         39
  48.6527         30
  48.8384         27
  49.0242         34
  49.2099         38
  49.3957         30
  49.5814         30
  49.7672         31
  49.9530         22
  50.1387         31
  50.3245         49
  50.5102         27
  50.6960         45
  50.8817         36
  51.0675         26
  51.2532         30
  51.4390         28
  51.6248         31
  51.8105         23
  51.9963         37
  52.1820         25
  52.3678         34
  52.5535         26
  52.7393         30
  52.9250         27
  53.1108         29
  53.2966         29
  53.4823         36
  53.6681         28
  53.8538         28
  54.0396         36
  54.2253         33
  54.4111         27
  54.5969         24
  54.7826         24
  54.9684         30
  55.1541         29
  55.3399         32
  55.5256         34
  55.7114         23
  55.8971         28
  56.0829         21
  56.2687         35
  56.4544         34
  56.6402         22
  56.8259         31
  57.0117         34
  57.1974         27
  57.3832         24
  57.5689         27
  57.7547         35
  57.9405         29
  58.1262         21
  58.3120         33
  58.4977         21
  58.6835         22
  58.8692         30
  59.0550         26
  59.2408         25
  59.4265         39
  59.6123         31
  59.7980         32
  59.9838         24
  60.0024         28