File: notebooks/data/xrd_data/ML_20220718_55_SJD_4_LaB6-1min.uxd
; (content of file Y:\Sam\Apurva-07-20-2022\puck4\ML_20220718_55_SJD_4_LaB6-1min.raw)
_FILEVERSION = 3
_SAMPLE = ML_20220718_55_SJD_4_LaB6-1min
_+SAMPLE =
_SITE = USA
_USER = Administrator
_GONIOMETER_CODE = 20
; Goniometer : D8 theta/2theta, stage : Unknown
_ATTACHMENTS_CODE = 0
_GONIOMETER_RADIUS = 200.5
_FIXED_DIVSLIT = 0.6
_FIXED_SAMPLESLIT = 0
_SOLLER_SLITS = 2
_FIXED_DETSLIT = 9.55
_MONOCHROMATOR = 0
; Incident beam monochromator : None
_SOLLER_SLITS_2 = N
_THIN_FILM = N
_BETA_FILTER = Y
_FIXED_ANTISLIT = 5.89
_ANALYZER_CODE = 0
; Received beam analyzer : None
_DATEMEASURED = "26-Jul-2022 10:58:43"
_WL_UNIT = A
_WL1 = 1.5406
_WL2 = 1.54439
_WL3 = 1.39222
_WLRATIO = 0.5
_ANODE = Cu
_V4_INF_CREATOR = XRDWizard
_V4_INF_CREATOR_VERSION = V2.9.0.22
_V4_INF_WIZARD_VERSION = V2.9.0.22
_V4_INF_WIZARD_ADDINS = V2.9.0.22
_V4_INF_WIZARD_DOCTYPE = XRD
_V4_INF_OSUSER = McQueenLab
_V4_INF_USER = Administrator
_V4_INF_SITE = USA
_V4_INF_SAMPLEID = ML_20220718_55_SJD_4_LaB6-1min

; Data for range 1
_DRIVE = COUPLED
_STEPTIME = 4.23
_STEPSIZE = 0.0185756
_STEPMODE = C
_START = 5
_THETA = 2.5
_2THETA = 5
_KHI = 0
_PHI = 0
_X = 0
_Y = 0
_Z = 0
_DETECTOR = 5
; Detector type : Unknown
_DETECTORSLIT = unkn
_AUX1 = 0
_AUX2 = 0
_AUX3 = 0
_TIMESTARTED = 15
_TEMP_RATE = -1
_TEMP_DELAY = -1
_KV = 40
_MA = 40
_RANGE_WL = 1.5406
_3DPLANE = 0
_V4_ADDITIONALDETECTOR = 257
_V4_PSD2THETA = 3.387
_V4_PSDCHANNEL1 = 0
_V4_PSDAPERTURE = 12.68
_V4_PSDTYPE = 5
_V4_PSDFIXED = 0
_V4_COUNTERS_MASK = 4096
_V4_DRIVES_MASK = 0
_V4_ENCODERS_MASK = 0
_2THETACOUNTS = 1
; 2THETA  PSD
   5.0000        104
   5.1858         98
   5.3715        109
   5.5573         62
   5.7430         79
   5.9288         59
   6.1145         71
   6.3003         66
   6.4860         71
   6.6718         77
   6.8576         68
   7.0433         57
   7.2291         59
   7.4148         64
   7.6006         59
   7.7863         83
   7.9721         63
   8.1579         66
   8.3436         63
   8.5294         78
   8.7151         76
   8.9009         70
   9.0866         68
   9.2724        104
   9.4581         91
   9.6439         92
   9.8297         91
  10.0154         96
  10.2012        100
  10.3869         83
  10.5727         78
  10.7584         71
  10.9442         64
  11.1299         80
  11.3157         96
  11.5015        114
  11.6872         82
  11.8730        100
  12.0587         83
  12.2445         82
  12.4302         78
  12.6160         65
  12.8018         76
  12.9875         86
  13.1733         82
  13.3590         65
  13.5448         71
  13.7305         68
  13.9163         60
  14.1020         64
  14.2878         71
  14.4736         59
  14.6593         57
  14.8451         53
  15.0308         52
  15.2166         58
  15.4023         50
  15.5881         65
  15.7738         58
  15.9596         65
  16.1454         39
  16.3311         59
  16.5169         58
  16.7026         60
  16.8884         61
  17.0741         75
  17.2599         65
  17.4457         52
  17.6314         60
  17.8172         63
  18.0029         53
  18.1887         74
  18.3744         57
  18.5602         66
  18.7459         57
  18.9317         54
  19.1175         74
  19.3032         69
  19.4890         74
  19.6747         65
  19.8605         69
  20.0462         68
  20.2320         45
  20.4177         68
  20.6035         71
  20.7893         57
  20.9750         83
  21.1608         88
  21.3465        152
  21.5323         53
  21.7180         72
  21.9038         77
  22.0896         60
  22.2753         76
  22.4611         76
  22.6468         59
  22.8326         72
  23.0183         72
  23.2041         75
  23.3898         69
  23.5756         73
  23.7614         83
  23.9471         75
  24.1329         92
  24.3186         73
  24.5044         65
  24.6901         78
  24.8759         80
  25.0616         63
  25.2474         80
  25.4332         78
  25.6189         77
  25.8047         59
  25.9904         68
  26.1762         81
  26.3619         74
  26.5477         82
  26.7335         62
  26.9192         74
  27.1050         74
  27.2907         76
  27.4765         81
  27.6622         64
  27.8480         75
  28.0337         66
  28.2195         60
  28.4053         56
  28.5910         64
  28.7768         53
  28.9625         41
  29.1483         67
  29.3340         58
  29.5198         67
  29.7055         50
  29.8913         57
  30.0771         61
  30.2628         43
  30.4486        111
  30.6343         58
  30.8201         43
  31.0058         65
  31.1916         53
  31.3774         40
  31.5631         58
  31.7489         48
  31.9346         43
  32.1204         53
  32.3061         43
  32.4919         73
  32.6776         40
  32.8634         55
  33.0492         38
  33.2349         38
  33.4207         40
  33.6064         35
  33.7922         38
  33.9779         44
  34.1637         40
  34.3494         48
  34.5352         42
  34.7210         55
  34.9067         54
  35.0925         43
  35.2782         47
  35.4640         50
  35.6497         27
  35.8355         32
  36.0213         42
  36.2070         30
  36.3928         48
  36.5785         32
  36.7643         38
  36.9500         35
  37.1358         29
  37.3215         27
  37.5073         44
  37.6931         37
  37.8788         30
  38.0646         35
  38.2503         28
  38.4361         31
  38.6218         35
  38.8076         29
  38.9933         28
  39.1791         33
  39.3649         28
  39.5506         28
  39.7364         24
  39.9221         18
  40.1079         29
  40.2936         22
  40.4794         24
  40.6652         29
  40.8509         31
  41.0367         31
  41.2224         33
  41.4082         28
  41.5939         19
  41.7797         29
  41.9654         26
  42.1512         29
  42.3370         25
  42.5227         31
  42.7085         27
  42.8942         24
  43.0800         30
  43.2657         27
  43.4515         33
  43.6372         28
  43.8230         21
  44.0088         25
  44.1945         30
  44.3803         23
  44.5660         20
  44.7518         32
  44.9375         25
  45.1233         16
  45.3091         18
  45.4948         22
  45.6806         34
  45.8663         24
  46.0521         31
  46.2378         22
  46.4236         12
  46.6093         20
  46.7951         25
  46.9809         23
  47.1666         25
  47.3524         28
  47.5381         22
  47.7239         26
  47.9096         31
  48.0954         28
  48.2811         15
  48.4669         26
  48.6527         26
  48.8384         16
  49.0242         21
  49.2099         23
  49.3957         27
  49.5814         22
  49.7672         18
  49.9530         23
  50.1387         28
  50.3245         20
  50.5102         27
  50.6960         21
  50.8817         22
  51.0675         26
  51.2532         30
  51.4390         30
  51.6248         26
  51.8105         22
  51.9963         27
  52.1820         21
  52.3678         26
  52.5535         17
  52.7393         14
  52.9250         18
  53.1108         28
  53.2966         18
  53.4823         22
  53.6681         21
  53.8538         24
  54.0396         23
  54.2253         32
  54.4111         22
  54.5969         24
  54.7826         20
  54.9684         20
  55.1541         21
  55.3399         19
  55.5256         20
  55.7114         19
  55.8971          9
  56.0829         14
  56.2687         23
  56.4544         21
  56.6402         26
  56.8259         27
  57.0117         19
  57.1974         13
  57.3832         21
  57.5689         31
  57.7547         20
  57.9405         27
  58.1262         19
  58.3120         28
  58.4977         19
  58.6835         16
  58.8692         19
  59.0550         12
  59.2408         21
  59.4265         23
  59.6123         24
  59.7980         24
  59.9838         23
  60.0024         21