File: notebooks/data/xrd_data/ML_20220721_35_SJD_4_LaB6-4min.csv
;,2THETA,
5.0000,273
5.1858,254
5.3715,247
5.5573,204
5.7430,194
5.9288,193
6.1145,152
6.3003,180
6.4860,164
6.6718,164
6.8576,178
7.0433,170
7.2291,167
7.4148,169
7.6006,152
7.7863,178
7.9721,202
8.1579,218
8.3436,179
8.5294,192
8.7151,183
8.9009,215
9.0866,240
9.2724,238
9.4581,204
9.6439,206
9.8297,269
10.0154,219
10.2012,243
10.3869,253
10.5727,239
10.7584,239
10.9442,233
11.1299,202
11.3157,259
11.5015,268
11.6872,238
11.8730,265
12.0587,232
12.2445,224
12.4302,230
12.6160,209
12.8018,210
12.9875,205
13.1733,218
13.3590,212
13.5448,191
13.7305,185
13.9163,184
14.1020,161
14.2878,191
14.4736,186
14.6593,176
14.8451,182
15.0308,141
15.2166,158
15.4023,188
15.5881,175
15.7738,162
15.9596,187
16.1454,150
16.3311,151
16.5169,171
16.7026,174
16.8884,149
17.0741,168
17.2599,179
17.4457,155
17.6314,164
17.8172,176
18.0029,158
18.1887,172
18.3744,174
18.5602,172
18.7459,171
18.9317,161
19.1175,184
19.3032,189
19.4890,182
19.6747,179
19.8605,216
20.0462,166
20.2320,203
20.4177,184
20.6035,197
20.7893,170
20.9750,189
21.1608,246
21.3465,518
21.5323,185
21.7180,193
21.9038,190
22.0896,164
22.2753,204
22.4611,191
22.6468,191
22.8326,205
23.0183,199
23.2041,194
23.3898,203
23.5756,192
23.7614,210
23.9471,213
24.1329,225
24.3186,247
24.5044,197
24.6901,186
24.8759,227
25.0616,203
25.2474,214
25.4332,190
25.6189,192
25.8047,197
25.9904,193
26.1762,198
26.3619,191
26.5477,189
26.7335,188
26.9192,213
27.1050,182
27.2907,220
27.4765,199
27.6622,179
27.8480,167
28.0337,174
28.2195,168
28.4053,183
28.5910,186
28.7768,161
28.9625,176
29.1483,168
29.3340,172
29.5198,170
29.7055,165
29.8913,138
30.0771,158
30.2628,183
30.4486,232
30.6343,156
30.8201,157
31.0058,143
31.1916,139
31.3774,140
31.5631,143
31.7489,116
31.9346,146
32.1204,124
32.3061,123
32.4919,151
32.6776,117
32.8634,123
33.0492,126
33.2349,125
33.4207,90
33.6064,126
33.7922,137
33.9779,126
34.1637,111
34.3494,124
34.5352,121
34.7210,133
34.9067,128
35.0925,123
35.2782,100
35.4640,101
35.6497,82
35.8355,81
36.0213,107
36.2070,103
36.3928,79
36.5785,88
36.7643,94
36.9500,100
37.1358,86
37.3215,89
37.5073,119
37.6931,77
37.8788,87
38.0646,73
38.2503,75
38.4361,91
38.6218,76
38.8076,93
38.9933,88
39.1791,83
39.3649,85
39.5506,74
39.7364,87
39.9221,84
40.1079,78
40.2936,80
40.4794,88
40.6652,89
40.8509,84
41.0367,62
41.2224,94
41.4082,71
41.5939,73
41.7797,75
41.9654,67
42.1512,77
42.3370,75
42.5227,86
42.7085,75
42.8942,61
43.0800,84
43.2657,87
43.4515,80
43.6372,100
43.8230,69
44.0088,72
44.1945,68
44.3803,89
44.5660,73
44.7518,76
44.9375,71
45.1233,60
45.3091,70
45.4948,72
45.6806,66
45.8663,70
46.0521,54
46.2378,87
46.4236,67
46.6093,72
46.7951,60
46.9809,61
47.1666,49
47.3524,72
47.5381,77
47.7239,57
47.9096,66
48.0954,67
48.2811,71
48.4669,75
48.6527,54
48.8384,70
49.0242,90
49.2099,61
49.3957,64
49.5814,63
49.7672,57
49.9530,67
50.1387,67
50.3245,57
50.5102,64
50.6960,68
50.8817,53
51.0675,41
51.2532,68
51.4390,71
51.6248,52
51.8105,66
51.9963,67
52.1820,69
52.3678,54
52.5535,52
52.7393,64
52.9250,54
53.1108,66
53.2966,48
53.4823,45
53.6681,48
53.8538,66
54.0396,68
54.2253,52
54.4111,53
54.5969,64
54.7826,54
54.9684,54
55.1541,59
55.3399,56
55.5256,52
55.7114,54
55.8971,50
56.0829,74
56.2687,57
56.4544,65
56.6402,60
56.8259,54
57.0117,57
57.1974,56
57.3832,61
57.5689,60
57.7547,54
57.9405,48
58.1262,57
58.3120,66
58.4977,47
58.6835,59
58.8692,57
59.0550,55
59.2408,57
59.4265,63
59.6123,60
59.7980,53
59.9838,55
60.0024,52