File: notebooks/data/xrd_data/ML_20220718_42_SJD_4_LaB6-1min.csv
;,2THETA,
5.0000,109
5.1858,102
5.3715,88
5.5573,98
5.7430,81
5.9288,67
6.1145,61
6.3003,63
6.4860,63
6.6718,68
6.8576,60
7.0433,56
7.2291,63
7.4148,57
7.6006,58
7.7863,58
7.9721,63
8.1579,77
8.3436,85
8.5294,80
8.7151,71
8.9009,80
9.0866,81
9.2724,74
9.4581,74
9.6439,91
9.8297,85
10.0154,87
10.2012,92
10.3869,96
10.5727,74
10.7584,86
10.9442,79
11.1299,81
11.3157,85
11.5015,94
11.6872,83
11.8730,96
12.0587,82
12.2445,75
12.4302,68
12.6160,72
12.8018,84
12.9875,73
13.1733,72
13.3590,78
13.5448,78
13.7305,60
13.9163,57
14.1020,53
14.2878,68
14.4736,68
14.6593,72
14.8451,59
15.0308,56
15.2166,65
15.4023,64
15.5881,63
15.7738,69
15.9596,48
16.1454,47
16.3311,65
16.5169,77
16.7026,52
16.8884,61
17.0741,67
17.2599,65
17.4457,73
17.6314,55
17.8172,60
18.0029,45
18.1887,56
18.3744,66
18.5602,67
18.7459,52
18.9317,59
19.1175,55
19.3032,60
19.4890,68
19.6747,68
19.8605,50
20.0462,53
20.2320,72
20.4177,77
20.6035,61
20.7893,66
20.9750,58
21.1608,83
21.3465,180
21.5323,88
21.7180,64
21.9038,80
22.0896,60
22.2753,69
22.4611,75
22.6468,74
22.8326,79
23.0183,82
23.2041,78
23.3898,63
23.5756,74
23.7614,84
23.9471,65
24.1329,75
24.3186,77
24.5044,78
24.6901,70
24.8759,66
25.0616,77
25.2474,90
25.4332,69
25.6189,62
25.8047,75
25.9904,88
26.1762,68
26.3619,81
26.5477,57
26.7335,61
26.9192,57
27.1050,81
27.2907,66
27.4765,60
27.6622,75
27.8480,69
28.0337,69
28.2195,71
28.4053,53
28.5910,52
28.7768,63
28.9625,61
29.1483,75
29.3340,67
29.5198,44
29.7055,54
29.8913,52
30.0771,67
30.2628,57
30.4486,87
30.6343,64
30.8201,51
31.0058,40
31.1916,58
31.3774,55
31.5631,40
31.7489,34
31.9346,57
32.1204,59
32.3061,51
32.4919,55
32.6776,55
32.8634,40
33.0492,44
33.2349,54
33.4207,37
33.6064,46
33.7922,56
33.9779,51
34.1637,46
34.3494,43
34.5352,44
34.7210,50
34.9067,47
35.0925,34
35.2782,35
35.4640,39
35.6497,31
35.8355,41
36.0213,47
36.2070,32
36.3928,37
36.5785,37
36.7643,34
36.9500,30
37.1358,35
37.3215,48
37.5073,49
37.6931,28
37.8788,27
38.0646,24
38.2503,31
38.4361,30
38.6218,28
38.8076,24
38.9933,35
39.1791,22
39.3649,30
39.5506,29
39.7364,31
39.9221,30
40.1079,31
40.2936,24
40.4794,34
40.6652,25
40.8509,22
41.0367,42
41.2224,20
41.4082,24
41.5939,30
41.7797,42
41.9654,33
42.1512,26
42.3370,34
42.5227,25
42.7085,30
42.8942,34
43.0800,25
43.2657,38
43.4515,41
43.6372,44
43.8230,23
44.0088,23
44.1945,28
44.3803,31
44.5660,25
44.7518,34
44.9375,26
45.1233,20
45.3091,16
45.4948,37
45.6806,22
45.8663,28
46.0521,22
46.2378,18
46.4236,29
46.6093,18
46.7951,20
46.9809,26
47.1666,24
47.3524,35
47.5381,21
47.7239,25
47.9096,25
48.0954,18
48.2811,23
48.4669,25
48.6527,18
48.8384,20
49.0242,20
49.2099,31
49.3957,23
49.5814,31
49.7672,24
49.9530,20
50.1387,34
50.3245,18
50.5102,20
50.6960,33
50.8817,19
51.0675,19
51.2532,15
51.4390,31
51.6248,20
51.8105,24
51.9963,19
52.1820,19
52.3678,17
52.5535,23
52.7393,23
52.9250,18
53.1108,17
53.2966,15
53.4823,25
53.6681,15
53.8538,29
54.0396,17
54.2253,16
54.4111,21
54.5969,22
54.7826,25
54.9684,22
55.1541,28
55.3399,27
55.5256,14
55.7114,20
55.8971,18
56.0829,23
56.2687,19
56.4544,20
56.6402,13
56.8259,23
57.0117,12
57.1974,23
57.3832,15
57.5689,16
57.7547,13
57.9405,16
58.1262,20
58.3120,22
58.4977,23
58.6835,23
58.8692,20
59.0550,17
59.2408,22
59.4265,18
59.6123,12
59.7980,28
59.9838,21
60.0024,19