File: notebooks/data/xrd_data/ML_20220718_41_SJD_4_LaB6-2min.uxd
; (content of file Y:\Sam\Apurva-07-20-2022\puck4\ML_20220718_41_SJD_4_LaB6-2min.raw)
_FILEVERSION = 3
_SAMPLE = ML_20220718_41_SJD_4_LaB6-2min
_+SAMPLE =
_SITE = USA
_USER = Administrator
_GONIOMETER_CODE = 20
; Goniometer : D8 theta/2theta, stage : Unknown
_ATTACHMENTS_CODE = 0
_GONIOMETER_RADIUS = 200.5
_FIXED_DIVSLIT = 0.6
_FIXED_SAMPLESLIT = 0
_SOLLER_SLITS = 2
_FIXED_DETSLIT = 9.55
_MONOCHROMATOR = 0
; Incident beam monochromator : None
_SOLLER_SLITS_2 = N
_THIN_FILM = N
_BETA_FILTER = Y
_FIXED_ANTISLIT = 5.89
_ANALYZER_CODE = 0
; Received beam analyzer : None
_DATEMEASURED = "26-Jul-2022 12:06:07"
_WL_UNIT = A
_WL1 = 1.5406
_WL2 = 1.54439
_WL3 = 1.39222
_WLRATIO = 0.5
_ANODE = Cu
_V4_INF_CREATOR = XRDWizard
_V4_INF_CREATOR_VERSION = V2.9.0.22
_V4_INF_WIZARD_VERSION = V2.9.0.22
_V4_INF_WIZARD_ADDINS = V2.9.0.22
_V4_INF_WIZARD_DOCTYPE = XRD
_V4_INF_OSUSER = McQueenLab
_V4_INF_USER = Administrator
_V4_INF_SITE = USA
_V4_INF_SAMPLEID = ML_20220718_41_SJD_4_LaB6-2min

; Data for range 1
_DRIVE = COUPLED
_STEPTIME = 5.64
_STEPSIZE = 0.0185756
_STEPMODE = C
_START = 5
_THETA = 2.5
_2THETA = 5
_KHI = 0
_PHI = 0
_X = 0
_Y = 0
_Z = 0
_DETECTOR = 5
; Detector type : Unknown
_DETECTORSLIT = unkn
_AUX1 = 0
_AUX2 = 0
_AUX3 = 0
_TIMESTARTED = 15
_TEMP_RATE = -1
_TEMP_DELAY = -1
_KV = 40
_MA = 40
_RANGE_WL = 1.5406
_3DPLANE = 0
_V4_ADDITIONALDETECTOR = 257
_V4_PSD2THETA = 3.3706
_V4_PSDCHANNEL1 = 0
_V4_PSDAPERTURE = 12.68
_V4_PSDTYPE = 5
_V4_PSDFIXED = 0
_V4_COUNTERS_MASK = 4096
_V4_DRIVES_MASK = 0
_V4_ENCODERS_MASK = 0
_2THETACOUNTS = 1
; 2THETA  PSD
   5.0000        126
   5.1858        117
   5.3715        120
   5.5573        115
   5.7430        102
   5.9288        123
   6.1145         98
   6.3003         99
   6.4860         77
   6.6718         92
   6.8576         75
   7.0433         97
   7.2291         82
   7.4148         77
   7.6006         82
   7.7863         73
   7.9721        104
   8.1579         96
   8.3436        108
   8.5294         92
   8.7151        103
   8.9009         97
   9.0866        114
   9.2724        119
   9.4581        121
   9.6439        112
   9.8297        140
  10.0154        123
  10.2012        121
  10.3869        131
  10.5727        130
  10.7584        131
  10.9442         79
  11.1299        124
  11.3157        143
  11.5015        112
  11.6872        121
  11.8730        110
  12.0587        101
  12.2445        107
  12.4302        103
  12.6160        102
  12.8018         91
  12.9875        106
  13.1733        103
  13.3590         96
  13.5448         87
  13.7305         98
  13.9163         92
  14.1020         96
  14.2878         85
  14.4736         97
  14.6593         90
  14.8451         87
  15.0308         91
  15.2166         83
  15.4023         79
  15.5881         78
  15.7738         74
  15.9596         91
  16.1454         85
  16.3311         83
  16.5169         73
  16.7026         78
  16.8884         94
  17.0741         94
  17.2599         78
  17.4457         81
  17.6314         90
  17.8172         78
  18.0029         81
  18.1887         78
  18.3744         97
  18.5602         95
  18.7459         67
  18.9317        100
  19.1175         82
  19.3032         90
  19.4890         84
  19.6747         82
  19.8605         98
  20.0462         96
  20.2320         96
  20.4177         92
  20.6035        111
  20.7893         80
  20.9750         99
  21.1608        118
  21.3465        250
  21.5323         91
  21.7180        101
  21.9038        110
  22.0896        110
  22.2753        123
  22.4611        102
  22.6468        101
  22.8326         92
  23.0183        114
  23.2041        103
  23.3898         99
  23.5756        101
  23.7614        101
  23.9471        108
  24.1329        100
  24.3186        102
  24.5044        104
  24.6901         94
  24.8759         84
  25.0616        102
  25.2474         95
  25.4332        100
  25.6189         92
  25.8047        116
  25.9904         90
  26.1762         91
  26.3619        108
  26.5477         95
  26.7335        116
  26.9192         84
  27.1050         91
  27.2907        108
  27.4765        100
  27.6622         75
  27.8480         90
  28.0337         98
  28.2195        104
  28.4053         81
  28.5910         76
  28.7768         78
  28.9625         76
  29.1483         72
  29.3340         76
  29.5198         78
  29.7055         83
  29.8913         68
  30.0771         75
  30.2628         73
  30.4486        119
  30.6343         77
  30.8201         70
  31.0058         56
  31.1916         57
  31.3774         59
  31.5631         66
  31.7489         57
  31.9346         63
  32.1204         69
  32.3061         72
  32.4919         87
  32.6776         69
  32.8634         61
  33.0492         53
  33.2349         72
  33.4207         53
  33.6064         53
  33.7922         57
  33.9779         53
  34.1637         47
  34.3494         58
  34.5352         70
  34.7210         72
  34.9067         51
  35.0925         51
  35.2782         42
  35.4640         55
  35.6497         47
  35.8355         50
  36.0213         55
  36.2070         39
  36.3928         51
  36.5785         52
  36.7643         44
  36.9500         45
  37.1358         43
  37.3215         33
  37.5073         60
  37.6931         50
  37.8788         46
  38.0646         31
  38.2503         47
  38.4361         34
  38.6218         43
  38.8076         37
  38.9933         45
  39.1791         46
  39.3649         30
  39.5506         26
  39.7364         44
  39.9221         40
  40.1079         41
  40.2936         34
  40.4794         41
  40.6652         37
  40.8509         41
  41.0367         57
  41.2224         45
  41.4082         39
  41.5939         29
  41.7797         39
  41.9654         40
  42.1512         36
  42.3370         44
  42.5227         42
  42.7085         42
  42.8942         45
  43.0800         32
  43.2657         46
  43.4515         33
  43.6372         44
  43.8230         41
  44.0088         32
  44.1945         38
  44.3803         40
  44.5660         35
  44.7518         35
  44.9375         56
  45.1233         41
  45.3091         32
  45.4948         31
  45.6806         37
  45.8663         37
  46.0521         25
  46.2378         29
  46.4236         28
  46.6093         34
  46.7951         38
  46.9809         26
  47.1666         26
  47.3524         36
  47.5381         27
  47.7239         24
  47.9096         30
  48.0954         33
  48.2811         22
  48.4669         39
  48.6527         19
  48.8384         38
  49.0242         32
  49.2099         34
  49.3957         31
  49.5814         35
  49.7672         26
  49.9530         34
  50.1387         34
  50.3245         35
  50.5102         28
  50.6960         26
  50.8817         20
  51.0675         24
  51.2532         33
  51.4390         30
  51.6248         38
  51.8105         34
  51.9963         29
  52.1820         35
  52.3678         27
  52.5535         34
  52.7393         24
  52.9250         24
  53.1108         36
  53.2966         38
  53.4823         20
  53.6681         35
  53.8538         25
  54.0396         40
  54.2253         27
  54.4111         30
  54.5969         34
  54.7826         25
  54.9684         29
  55.1541         30
  55.3399         23
  55.5256         25
  55.7114         26
  55.8971         33
  56.0829         29
  56.2687         22
  56.4544         33
  56.6402         38
  56.8259         35
  57.0117         23
  57.1974         28
  57.3832         29
  57.5689         33
  57.7547         26
  57.9405         24
  58.1262         20
  58.3120         25
  58.4977         26
  58.6835         19
  58.8692         32
  59.0550         25
  59.2408         24
  59.4265         25
  59.6123         27
  59.7980         21
  59.9838         26
  60.0024         29