File: notebooks/data/xrd_data/ML_20220718_50_SJD_4_LaB6-1min.csv
;,2THETA,
5.0000,120
5.1858,81
5.3715,106
5.5573,75
5.7430,80
5.9288,78
6.1145,78
6.3003,73
6.4860,52
6.6718,65
6.8576,62
7.0433,55
7.2291,49
7.4148,49
7.6006,63
7.7863,68
7.9721,81
8.1579,80
8.3436,80
8.5294,54
8.7151,70
8.9009,67
9.0866,76
9.2724,78
9.4581,79
9.6439,68
9.8297,97
10.0154,101
10.2012,85
10.3869,79
10.5727,100
10.7584,82
10.9442,90
11.1299,91
11.3157,92
11.5015,82
11.6872,81
11.8730,101
12.0587,78
12.2445,83
12.4302,94
12.6160,86
12.8018,66
12.9875,89
13.1733,78
13.3590,85
13.5448,62
13.7305,57
13.9163,68
14.1020,77
14.2878,68
14.4736,74
14.6593,67
14.8451,51
15.0308,52
15.2166,58
15.4023,72
15.5881,69
15.7738,62
15.9596,71
16.1454,36
16.3311,57
16.5169,50
16.7026,43
16.8884,58
17.0741,60
17.2599,56
17.4457,51
17.6314,64
17.8172,61
18.0029,73
18.1887,64
18.3744,78
18.5602,60
18.7459,66
18.9317,53
19.1175,61
19.3032,58
19.4890,73
19.6747,55
19.8605,68
20.0462,70
20.2320,54
20.4177,63
20.6035,56
20.7893,82
20.9750,72
21.1608,94
21.3465,193
21.5323,70
21.7180,50
21.9038,74
22.0896,73
22.2753,77
22.4611,68
22.6468,79
22.8326,94
23.0183,62
23.2041,60
23.3898,89
23.5756,75
23.7614,78
23.9471,79
24.1329,71
24.3186,85
24.5044,71
24.6901,72
24.8759,70
25.0616,71
25.2474,57
25.4332,72
25.6189,62
25.8047,65
25.9904,69
26.1762,66
26.3619,67
26.5477,71
26.7335,66
26.9192,52
27.1050,79
27.2907,69
27.4765,66
27.6622,76
27.8480,66
28.0337,67
28.2195,60
28.4053,61
28.5910,62
28.7768,53
28.9625,62
29.1483,50
29.3340,54
29.5198,49
29.7055,53
29.8913,70
30.0771,58
30.2628,70
30.4486,111
30.6343,58
30.8201,60
31.0058,50
31.1916,54
31.3774,50
31.5631,64
31.7489,46
31.9346,56
32.1204,48
32.3061,57
32.4919,65
32.6776,54
32.8634,43
33.0492,49
33.2349,57
33.4207,33
33.6064,35
33.7922,45
33.9779,43
34.1637,39
34.3494,41
34.5352,40
34.7210,34
34.9067,49
35.0925,42
35.2782,36
35.4640,49
35.6497,40
35.8355,37
36.0213,39
36.2070,37
36.3928,40
36.5785,26
36.7643,46
36.9500,28
37.1358,35
37.3215,40
37.5073,31
37.6931,47
37.8788,30
38.0646,41
38.2503,27
38.4361,31
38.6218,28
38.8076,42
38.9933,41
39.1791,19
39.3649,27
39.5506,33
39.7364,36
39.9221,31
40.1079,26
40.2936,34
40.4794,29
40.6652,20
40.8509,24
41.0367,31
41.2224,23
41.4082,27
41.5939,26
41.7797,29
41.9654,29
42.1512,29
42.3370,23
42.5227,16
42.7085,34
42.8942,33
43.0800,32
43.2657,35
43.4515,27
43.6372,47
43.8230,25
44.0088,28
44.1945,25
44.3803,32
44.5660,36
44.7518,24
44.9375,21
45.1233,19
45.3091,25
45.4948,32
45.6806,24
45.8663,21
46.0521,20
46.2378,19
46.4236,26
46.6093,24
46.7951,28
46.9809,27
47.1666,26
47.3524,16
47.5381,29
47.7239,29
47.9096,23
48.0954,25
48.2811,22
48.4669,25
48.6527,31
48.8384,18
49.0242,24
49.2099,26
49.3957,27
49.5814,22
49.7672,29
49.9530,33
50.1387,23
50.3245,23
50.5102,16
50.6960,23
50.8817,31
51.0675,21
51.2532,25
51.4390,34
51.6248,20
51.8105,18
51.9963,20
52.1820,22
52.3678,21
52.5535,36
52.7393,21
52.9250,17
53.1108,27
53.2966,26
53.4823,14
53.6681,25
53.8538,29
54.0396,24
54.2253,19
54.4111,20
54.5969,12
54.7826,25
54.9684,28
55.1541,23
55.3399,26
55.5256,23
55.7114,28
55.8971,19
56.0829,25
56.2687,21
56.4544,14
56.6402,12
56.8259,31
57.0117,17
57.1974,23
57.3832,30
57.5689,18
57.7547,17
57.9405,19
58.1262,17
58.3120,20
58.4977,20
58.6835,13
58.8692,18
59.0550,21
59.2408,20
59.4265,18
59.6123,24
59.7980,14
59.9838,15
60.0024,17