File: notebooks/data/xrd_data/ML_20220721_26_SJD_4_LaB6-4min.csv
;,2THETA,
5.0000,289
5.1858,240
5.3715,223
5.5573,224
5.7430,238
5.9288,204
6.1145,206
6.3003,169
6.4860,177
6.6718,174
6.8576,152
7.0433,168
7.2291,157
7.4148,149
7.6006,169
7.7863,177
7.9721,204
8.1579,191
8.3436,189
8.5294,181
8.7151,212
8.9009,205
9.0866,226
9.2724,211
9.4581,225
9.6439,226
9.8297,228
10.0154,225
10.2012,240
10.3869,227
10.5727,234
10.7584,260
10.9442,226
11.1299,221
11.3157,230
11.5015,235
11.6872,237
11.8730,228
12.0587,192
12.2445,212
12.4302,205
12.6160,246
12.8018,191
12.9875,230
13.1733,199
13.3590,181
13.5448,182
13.7305,196
13.9163,162
14.1020,155
14.2878,194
14.4736,152
14.6593,154
14.8451,163
15.0308,170
15.2166,166
15.4023,164
15.5881,161
15.7738,160
15.9596,146
16.1454,159
16.3311,173
16.5169,188
16.7026,152
16.8884,131
17.0741,157
17.2599,150
17.4457,166
17.6314,178
17.8172,156
18.0029,165
18.1887,183
18.3744,159
18.5602,154
18.7459,158
18.9317,186
19.1175,158
19.3032,193
19.4890,214
19.6747,167
19.8605,146
20.0462,199
20.2320,176
20.4177,187
20.6035,191
20.7893,187
20.9750,206
21.1608,226
21.3465,542
21.5323,205
21.7180,191
21.9038,229
22.0896,196
22.2753,197
22.4611,203
22.6468,212
22.8326,187
23.0183,190
23.2041,202
23.3898,188
23.5756,184
23.7614,235
23.9471,237
24.1329,204
24.3186,209
24.5044,179
24.6901,178
24.8759,221
25.0616,213
25.2474,185
25.4332,196
25.6189,202
25.8047,201
25.9904,186
26.1762,207
26.3619,188
26.5477,182
26.7335,212
26.9192,188
27.1050,168
27.2907,198
27.4765,200
27.6622,217
27.8480,177
28.0337,180
28.2195,174
28.4053,171
28.5910,188
28.7768,174
28.9625,158
29.1483,178
29.3340,157
29.5198,169
29.7055,164
29.8913,171
30.0771,164
30.2628,164
30.4486,239
30.6343,163
30.8201,166
31.0058,144
31.1916,143
31.3774,125
31.5631,127
31.7489,135
31.9346,134
32.1204,163
32.3061,114
32.4919,154
32.6776,125
32.8634,145
33.0492,119
33.2349,114
33.4207,133
33.6064,114
33.7922,112
33.9779,97
34.1637,112
34.3494,125
34.5352,108
34.7210,152
34.9067,136
35.0925,100
35.2782,94
35.4640,99
35.6497,117
35.8355,109
36.0213,107
36.2070,86
36.3928,95
36.5785,95
36.7643,90
36.9500,95
37.1358,98
37.3215,84
37.5073,109
37.6931,101
37.8788,74
38.0646,91
38.2503,89
38.4361,74
38.6218,97
38.8076,86
38.9933,83
39.1791,93
39.3649,80
39.5506,67
39.7364,75
39.9221,81
40.1079,90
40.2936,83
40.4794,96
40.6652,73
40.8509,88
41.0367,80
41.2224,74
41.4082,70
41.5939,67
41.7797,87
41.9654,61
42.1512,80
42.3370,76
42.5227,70
42.7085,68
42.8942,81
43.0800,72
43.2657,72
43.4515,99
43.6372,92
43.8230,79
44.0088,70
44.1945,74
44.3803,81
44.5660,60
44.7518,90
44.9375,67
45.1233,75
45.3091,58
45.4948,64
45.6806,69
45.8663,61
46.0521,62
46.2378,69
46.4236,45
46.6093,65
46.7951,65
46.9809,64
47.1666,84
47.3524,78
47.5381,78
47.7239,72
47.9096,55
48.0954,73
48.2811,66
48.4669,64
48.6527,55
48.8384,70
49.0242,85
49.2099,64
49.3957,68
49.5814,62
49.7672,59
49.9530,65
50.1387,76
50.3245,69
50.5102,68
50.6960,57
50.8817,67
51.0675,60
51.2532,65
51.4390,68
51.6248,69
51.8105,69
51.9963,70
52.1820,57
52.3678,72
52.5535,65
52.7393,55
52.9250,65
53.1108,43
53.2966,66
53.4823,67
53.6681,60
53.8538,54
54.0396,67
54.2253,64
54.4111,67
54.5969,59
54.7826,45
54.9684,65
55.1541,47
55.3399,49
55.5256,53
55.7114,52
55.8971,56
56.0829,60
56.2687,54
56.4544,56
56.6402,62
56.8259,52
57.0117,70
57.1974,52
57.3832,55
57.5689,50
57.7547,50
57.9405,60
58.1262,62
58.3120,54
58.4977,56
58.6835,50
58.8692,50
59.0550,60
59.2408,55
59.4265,49
59.6123,61
59.7980,48
59.9838,59
60.0024,52