File: notebooks/data/xrd_data/ML_20220720_6_SJD_4_LaB6-4min.uxd
; (content of file Y:\Sam\Apurva-07-20-2022\puck2\ML_20220720_6_SJD_0_LaB6-4min.raw)
_FILEVERSION = 3
_SAMPLE = ML_20220720_6_SJD_0_LaB6-4min
_+SAMPLE =
_SITE = USA
_USER = Administrator
_GONIOMETER_CODE = 20
; Goniometer : D8 theta/2theta, stage : Unknown
_ATTACHMENTS_CODE = 0
_GONIOMETER_RADIUS = 200.5
_FIXED_DIVSLIT = 0.6
_FIXED_SAMPLESLIT = 0
_SOLLER_SLITS = 2
_FIXED_DETSLIT = 9.55
_MONOCHROMATOR = 0
; Incident beam monochromator : None
_SOLLER_SLITS_2 = N
_THIN_FILM = N
_BETA_FILTER = Y
_FIXED_ANTISLIT = 5.89
_ANALYZER_CODE = 0
; Received beam analyzer : None
_DATEMEASURED = "25-Jul-2022 17:47:01"
_WL_UNIT = A
_WL1 = 1.5406
_WL2 = 1.54439
_WL3 = 1.39222
_WLRATIO = 0.5
_ANODE = Cu
_V4_INF_CREATOR = XRDWizard
_V4_INF_CREATOR_VERSION = V2.9.0.22
_V4_INF_WIZARD_VERSION = V2.9.0.22
_V4_INF_WIZARD_ADDINS = V2.9.0.22
_V4_INF_WIZARD_DOCTYPE = XRD
_V4_INF_OSUSER = McQueenLab
_V4_INF_USER = Administrator
_V4_INF_SITE = USA
_V4_INF_SAMPLEID = ML_20220720_6_SJD_0_LaB6-4min

; Data for range 1
_DRIVE = COUPLED
_STEPTIME = 11.28
_STEPSIZE = 0.0185756
_STEPMODE = C
_START = 5
_THETA = 2.5
_2THETA = 5
_KHI = 0
_PHI = 0
_X = 0
_Y = 0
_Z = 0
_DETECTOR = 5
; Detector type : Unknown
_DETECTORSLIT = unkn
_AUX1 = 0
_AUX2 = 0
_AUX3 = 0
_TIMESTARTED = 14
_TEMP_RATE = -1
_TEMP_DELAY = -1
_KV = 40
_MA = 40
_RANGE_WL = 1.5406
_3DPLANE = 0
_V4_ADDITIONALDETECTOR = 257
_V4_PSD2THETA = 3.365
_V4_PSDCHANNEL1 = 0
_V4_PSDAPERTURE = 12.68
_V4_PSDTYPE = 5
_V4_PSDFIXED = 0
_V4_COUNTERS_MASK = 4096
_V4_DRIVES_MASK = 0
_V4_ENCODERS_MASK = 0
_2THETACOUNTS = 1
; 2THETA  PSD
   5.0000        263
   5.1858        280
   5.3715        225
   5.5573        202
   5.7430        200
   5.9288        232
   6.1145        199
   6.3003        219
   6.4860        172
   6.6718        162
   6.8576        159
   7.0433        164
   7.2291        182
   7.4148        164
   7.6006        174
   7.7863        176
   7.9721        200
   8.1579        181
   8.3436        223
   8.5294        202
   8.7151        190
   8.9009        220
   9.0866        224
   9.2724        196
   9.4581        214
   9.6439        259
   9.8297        222
  10.0154        249
  10.2012        225
  10.3869        252
  10.5727        251
  10.7584        258
  10.9442        218
  11.1299        244
  11.3157        213
  11.5015        223
  11.6872        215
  11.8730        240
  12.0587        221
  12.2445        234
  12.4302        223
  12.6160        206
  12.8018        192
  12.9875        207
  13.1733        167
  13.3590        178
  13.5448        190
  13.7305        188
  13.9163        184
  14.1020        211
  14.2878        187
  14.4736        208
  14.6593        166
  14.8451        188
  15.0308        171
  15.2166        181
  15.4023        170
  15.5881        173
  15.7738        165
  15.9596        170
  16.1454        171
  16.3311        178
  16.5169        181
  16.7026        189
  16.8884        150
  17.0741        158
  17.2599        187
  17.4457        173
  17.6314        172
  17.8172        186
  18.0029        192
  18.1887        165
  18.3744        162
  18.5602        155
  18.7459        184
  18.9317        170
  19.1175        167
  19.3032        174
  19.4890        169
  19.6747        157
  19.8605        182
  20.0462        176
  20.2320        174
  20.4177        166
  20.6035        204
  20.7893        196
  20.9750        170
  21.1608        221
  21.3465        534
  21.5323        231
  21.7180        168
  21.9038        217
  22.0896        179
  22.2753        195
  22.4611        199
  22.6468        197
  22.8326        208
  23.0183        235
  23.2041        194
  23.3898        191
  23.5756        195
  23.7614        216
  23.9471        209
  24.1329        187
  24.3186        225
  24.5044        207
  24.6901        181
  24.8759        163
  25.0616        204
  25.2474        172
  25.4332        208
  25.6189        189
  25.8047        247
  25.9904        201
  26.1762        194
  26.3619        211
  26.5477        198
  26.7335        188
  26.9192        180
  27.1050        190
  27.2907        214
  27.4765        199
  27.6622        179
  27.8480        176
  28.0337        166
  28.2195        201
  28.4053        159
  28.5910        169
  28.7768        142
  28.9625        175
  29.1483        151
  29.3340        158
  29.5198        186
  29.7055        159
  29.8913        156
  30.0771        157
  30.2628        161
  30.4486        250
  30.6343        154
  30.8201        138
  31.0058        164
  31.1916        162
  31.3774        136
  31.5631        126
  31.7489        123
  31.9346        138
  32.1204        137
  32.3061        149
  32.4919        140
  32.6776        143
  32.8634        130
  33.0492        118
  33.2349        130
  33.4207        116
  33.6064        126
  33.7922        128
  33.9779        138
  34.1637        122
  34.3494        131
  34.5352        109
  34.7210        142
  34.9067        122
  35.0925        103
  35.2782         96
  35.4640        114
  35.6497        104
  35.8355        112
  36.0213         95
  36.2070        104
  36.3928         97
  36.5785         89
  36.7643         95
  36.9500         81
  37.1358         94
  37.3215         86
  37.5073        123
  37.6931         93
  37.8788        102
  38.0646         82
  38.2503         78
  38.4361         85
  38.6218         84
  38.8076         85
  38.9933         78
  39.1791         78
  39.3649         78
  39.5506         90
  39.7364         77
  39.9221         61
  40.1079         81
  40.2936        105
  40.4794         78
  40.6652         70
  40.8509         74
  41.0367         78
  41.2224         92
  41.4082         72
  41.5939         73
  41.7797         79
  41.9654         81
  42.1512         74
  42.3370         68
  42.5227         70
  42.7085         67
  42.8942         69
  43.0800         72
  43.2657         90
  43.4515         94
  43.6372         99
  43.8230         77
  44.0088         63
  44.1945         69
  44.3803         74
  44.5660         92
  44.7518         70
  44.9375         69
  45.1233         94
  45.3091         62
  45.4948         62
  45.6806         73
  45.8663         74
  46.0521         66
  46.2378         69
  46.4236         62
  46.6093         63
  46.7951         87
  46.9809         73
  47.1666         68
  47.3524         70
  47.5381         81
  47.7239         62
  47.9096         57
  48.0954         69
  48.2811         68
  48.4669         71
  48.6527         71
  48.8384         73
  49.0242         86
  49.2099         62
  49.3957         64
  49.5814         57
  49.7672         67
  49.9530         63
  50.1387         56
  50.3245         59
  50.5102         63
  50.6960         54
  50.8817         63
  51.0675         62
  51.2532         59
  51.4390         67
  51.6248         63
  51.8105         69
  51.9963         53
  52.1820         55
  52.3678         57
  52.5535         53
  52.7393         57
  52.9250         55
  53.1108         62
  53.2966         51
  53.4823         59
  53.6681         61
  53.8538         73
  54.0396         70
  54.2253         66
  54.4111         60
  54.5969         71
  54.7826         59
  54.9684         60
  55.1541         61
  55.3399         46
  55.5256         53
  55.7114         55
  55.8971         55
  56.0829         57
  56.2687         61
  56.4544         77
  56.6402         52
  56.8259         69
  57.0117         44
  57.1974         51
  57.3832         52
  57.5689         62
  57.7547         61
  57.9405         64
  58.1262         54
  58.3120         63
  58.4977         61
  58.6835         60
  58.8692         72
  59.0550         61
  59.2408         56
  59.4265         47
  59.6123         75
  59.7980         57
  59.9838         54
  60.0024         40