File: notebooks/data/xrd_data/ML_20220718_17_SJD_4_LaB6-2min.uxd
; (content of file Y:\Sam\Apurva-07-20-2022\puck4\ML_20220718_17_SJD_0_LaB6-2min.raw)
_FILEVERSION = 3
_SAMPLE = ML_20220718_17_SJD_0_LaB6-2min
_+SAMPLE =
_SITE = USA
_USER = Administrator
_GONIOMETER_CODE = 20
; Goniometer : D8 theta/2theta, stage : Unknown
_ATTACHMENTS_CODE = 0
_GONIOMETER_RADIUS = 200.5
_FIXED_DIVSLIT = 0.6
_FIXED_SAMPLESLIT = 0
_SOLLER_SLITS = 2
_FIXED_DETSLIT = 9.55
_MONOCHROMATOR = 0
; Incident beam monochromator : None
_SOLLER_SLITS_2 = N
_THIN_FILM = N
_BETA_FILTER = Y
_FIXED_ANTISLIT = 5.89
_ANALYZER_CODE = 0
; Received beam analyzer : None
_DATEMEASURED = "26-Jul-2022 09:44:42"
_WL_UNIT = A
_WL1 = 1.5406
_WL2 = 1.54439
_WL3 = 1.39222
_WLRATIO = 0.5
_ANODE = Cu
_V4_INF_CREATOR = XRDWizard
_V4_INF_CREATOR_VERSION = V2.9.0.22
_V4_INF_WIZARD_VERSION = V2.9.0.22
_V4_INF_WIZARD_ADDINS = V2.9.0.22
_V4_INF_WIZARD_DOCTYPE = XRD
_V4_INF_OSUSER = McQueenLab
_V4_INF_USER = Administrator
_V4_INF_SITE = USA
_V4_INF_SAMPLEID = ML_20220718_17_SJD_0_LaB6-2min

; Data for range 1
_DRIVE = COUPLED
_STEPTIME = 5.64
_STEPSIZE = 0.0185756
_STEPMODE = C
_START = 5
_THETA = 2.5
_2THETA = 5
_KHI = 0
_PHI = 0
_X = 0
_Y = 0
_Z = 0
_DETECTOR = 5
; Detector type : Unknown
_DETECTORSLIT = unkn
_AUX1 = 0
_AUX2 = 0
_AUX3 = 0
_TIMESTARTED = 15
_TEMP_RATE = -1
_TEMP_DELAY = -1
_KV = 40
_MA = 40
_RANGE_WL = 1.5406
_3DPLANE = 0
_V4_ADDITIONALDETECTOR = 257
_V4_PSD2THETA = 3.3708
_V4_PSDCHANNEL1 = 0
_V4_PSDAPERTURE = 12.68
_V4_PSDTYPE = 5
_V4_PSDFIXED = 0
_V4_COUNTERS_MASK = 4096
_V4_DRIVES_MASK = 0
_V4_ENCODERS_MASK = 0
_2THETACOUNTS = 1
; 2THETA  PSD
   5.0000        128
   5.1858        118
   5.3715        106
   5.5573         94
   5.7430        110
   5.9288         93
   6.1145        101
   6.3003        111
   6.4860         88
   6.6718         81
   6.8576         77
   7.0433         89
   7.2291         86
   7.4148         79
   7.6006         69
   7.7863         79
   7.9721         89
   8.1579        100
   8.3436        108
   8.5294        107
   8.7151        106
   8.9009        126
   9.0866         84
   9.2724        112
   9.4581        102
   9.6439         94
   9.8297        119
  10.0154        108
  10.2012        105
  10.3869        112
  10.5727        130
  10.7584        122
  10.9442        101
  11.1299        117
  11.3157        101
  11.5015        112
  11.6872        112
  11.8730        122
  12.0587        103
  12.2445        144
  12.4302        104
  12.6160        104
  12.8018        102
  12.9875        118
  13.1733        108
  13.3590        105
  13.5448         99
  13.7305        105
  13.9163         87
  14.1020         92
  14.2878         80
  14.4736         69
  14.6593         76
  14.8451         94
  15.0308         78
  15.2166         87
  15.4023         81
  15.5881         81
  15.7738         70
  15.9596         81
  16.1454         76
  16.3311         89
  16.5169         92
  16.7026         77
  16.8884         78
  17.0741         76
  17.2599         74
  17.4457         67
  17.6314         80
  17.8172         85
  18.0029         63
  18.1887         90
  18.3744         88
  18.5602         82
  18.7459         89
  18.9317         97
  19.1175         72
  19.3032         71
  19.4890         88
  19.6747         84
  19.8605         75
  20.0462         78
  20.2320         73
  20.4177        105
  20.6035         96
  20.7893         99
  20.9750         88
  21.1608        129
  21.3465        263
  21.5323         84
  21.7180         97
  21.9038         95
  22.0896         91
  22.2753         97
  22.4611         92
  22.6468        100
  22.8326         84
  23.0183         90
  23.2041        100
  23.3898        105
  23.5756         75
  23.7614        104
  23.9471         97
  24.1329        103
  24.3186        110
  24.5044        104
  24.6901        119
  24.8759         99
  25.0616        109
  25.2474        106
  25.4332         90
  25.6189         98
  25.8047         89
  25.9904         97
  26.1762        104
  26.3619         87
  26.5477         90
  26.7335         96
  26.9192         88
  27.1050         76
  27.2907        106
  27.4765        101
  27.6622         74
  27.8480         69
  28.0337         84
  28.2195         79
  28.4053         80
  28.5910         76
  28.7768         81
  28.9625         88
  29.1483         76
  29.3340         87
  29.5198         71
  29.7055         86
  29.8913         70
  30.0771         81
  30.2628         91
  30.4486        112
  30.6343         91
  30.8201         73
  31.0058         76
  31.1916         63
  31.3774         70
  31.5631         70
  31.7489         67
  31.9346         70
  32.1204         59
  32.3061         64
  32.4919         72
  32.6776         61
  32.8634         63
  33.0492         57
  33.2349         55
  33.4207         55
  33.6064         53
  33.7922         57
  33.9779         44
  34.1637         62
  34.3494         59
  34.5352         54
  34.7210         79
  34.9067         63
  35.0925         65
  35.2782         56
  35.4640         41
  35.6497         59
  35.8355         44
  36.0213         43
  36.2070         46
  36.3928         44
  36.5785         42
  36.7643         42
  36.9500         34
  37.1358         52
  37.3215         48
  37.5073         53
  37.6931         52
  37.8788         45
  38.0646         36
  38.2503         46
  38.4361         47
  38.6218         46
  38.8076         40
  38.9933         42
  39.1791         40
  39.3649         40
  39.5506         40
  39.7364         32
  39.9221         47
  40.1079         48
  40.2936         44
  40.4794         40
  40.6652         35
  40.8509         35
  41.0367         43
  41.2224         44
  41.4082         47
  41.5939         36
  41.7797         34
  41.9654         34
  42.1512         34
  42.3370         34
  42.5227         37
  42.7085         42
  42.8942         33
  43.0800         46
  43.2657         54
  43.4515         52
  43.6372         61
  43.8230         35
  44.0088         41
  44.1945         26
  44.3803         44
  44.5660         38
  44.7518         43
  44.9375         52
  45.1233         35
  45.3091         23
  45.4948         29
  45.6806         34
  45.8663         33
  46.0521         31
  46.2378         39
  46.4236         26
  46.6093         23
  46.7951         35
  46.9809         26
  47.1666         35
  47.3524         20
  47.5381         33
  47.7239         41
  47.9096         22
  48.0954         35
  48.2811         28
  48.4669         30
  48.6527         32
  48.8384         36
  49.0242         36
  49.2099         20
  49.3957         33
  49.5814         39
  49.7672         21
  49.9530         36
  50.1387         30
  50.3245         25
  50.5102         28
  50.6960         26
  50.8817         32
  51.0675         31
  51.2532         35
  51.4390         35
  51.6248         35
  51.8105         31
  51.9963         22
  52.1820         27
  52.3678         25
  52.5535         42
  52.7393         19
  52.9250         30
  53.1108         26
  53.2966         31
  53.4823         41
  53.6681         22
  53.8538         20
  54.0396         37
  54.2253         32
  54.4111         22
  54.5969         28
  54.7826         26
  54.9684         35
  55.1541         27
  55.3399         27
  55.5256         35
  55.7114         30
  55.8971         19
  56.0829         29
  56.2687         30
  56.4544         25
  56.6402         20
  56.8259         29
  57.0117         34
  57.1974         29
  57.3832         30
  57.5689         31
  57.7547         23
  57.9405         21
  58.1262         26
  58.3120         33
  58.4977         25
  58.6835         28
  58.8692         28
  59.0550         25
  59.2408         32
  59.4265         27
  59.6123         30
  59.7980         29
  59.9838         27
  60.0024         42