File: notebooks/data/xrd_data/ML_20220721_32_SJD_4_LaB6-4min.csv
;,2THETA,
5.0000,268
5.1858,250
5.3715,215
5.5573,210
5.7430,204
5.9288,206
6.1145,206
6.3003,170
6.4860,189
6.6718,157
6.8576,167
7.0433,166
7.2291,156
7.4148,147
7.6006,175
7.7863,172
7.9721,206
8.1579,195
8.3436,206
8.5294,193
8.7151,214
8.9009,218
9.0866,231
9.2724,220
9.4581,215
9.6439,217
9.8297,232
10.0154,222
10.2012,250
10.3869,246
10.5727,223
10.7584,240
10.9442,243
11.1299,252
11.3157,220
11.5015,228
11.6872,218
11.8730,206
12.0587,223
12.2445,200
12.4302,212
12.6160,240
12.8018,229
12.9875,217
13.1733,223
13.3590,230
13.5448,208
13.7305,190
13.9163,222
14.1020,187
14.2878,169
14.4736,164
14.6593,170
14.8451,174
15.0308,156
15.2166,154
15.4023,141
15.5881,165
15.7738,156
15.9596,146
16.1454,173
16.3311,165
16.5169,164
16.7026,143
16.8884,167
17.0741,179
17.2599,144
17.4457,175
17.6314,168
17.8172,181
18.0029,149
18.1887,171
18.3744,180
18.5602,200
18.7459,182
18.9317,191
19.1175,197
19.3032,186
19.4890,189
19.6747,181
19.8605,179
20.0462,187
20.2320,198
20.4177,192
20.6035,191
20.7893,180
20.9750,220
21.1608,216
21.3465,509
21.5323,216
21.7180,196
21.9038,208
22.0896,195
22.2753,191
22.4611,205
22.6468,193
22.8326,207
23.0183,198
23.2041,184
23.3898,206
23.5756,219
23.7614,208
23.9471,186
24.1329,203
24.3186,240
24.5044,202
24.6901,193
24.8759,207
25.0616,188
25.2474,187
25.4332,213
25.6189,186
25.8047,191
25.9904,191
26.1762,171
26.3619,183
26.5477,206
26.7335,204
26.9192,181
27.1050,199
27.2907,199
27.4765,174
27.6622,178
27.8480,179
28.0337,199
28.2195,172
28.4053,143
28.5910,175
28.7768,182
28.9625,154
29.1483,144
29.3340,173
29.5198,180
29.7055,162
29.8913,168
30.0771,145
30.2628,168
30.4486,240
30.6343,152
30.8201,150
31.0058,135
31.1916,143
31.3774,130
31.5631,137
31.7489,122
31.9346,133
32.1204,137
32.3061,132
32.4919,126
32.6776,128
32.8634,112
33.0492,135
33.2349,104
33.4207,105
33.6064,101
33.7922,99
33.9779,112
34.1637,103
34.3494,115
34.5352,109
34.7210,142
34.9067,102
35.0925,114
35.2782,111
35.4640,99
35.6497,105
35.8355,103
36.0213,124
36.2070,105
36.3928,107
36.5785,98
36.7643,86
36.9500,110
37.1358,109
37.3215,103
37.5073,112
37.6931,89
37.8788,81
38.0646,87
38.2503,79
38.4361,104
38.6218,88
38.8076,77
38.9933,86
39.1791,69
39.3649,74
39.5506,74
39.7364,82
39.9221,83
40.1079,73
40.2936,94
40.4794,68
40.6652,84
40.8509,80
41.0367,81
41.2224,70
41.4082,82
41.5939,65
41.7797,80
41.9654,69
42.1512,65
42.3370,68
42.5227,72
42.7085,72
42.8942,81
43.0800,83
43.2657,94
43.4515,90
43.6372,104
43.8230,72
44.0088,65
44.1945,64
44.3803,70
44.5660,75
44.7518,83
44.9375,76
45.1233,59
45.3091,75
45.4948,56
45.6806,66
45.8663,72
46.0521,67
46.2378,80
46.4236,62
46.6093,67
46.7951,49
46.9809,54
47.1666,66
47.3524,76
47.5381,57
47.7239,53
47.9096,71
48.0954,61
48.2811,64
48.4669,55
48.6527,54
48.8384,52
49.0242,79
49.2099,87
49.3957,65
49.5814,53
49.7672,62
49.9530,86
50.1387,72
50.3245,72
50.5102,62
50.6960,72
50.8817,69
51.0675,58
51.2532,70
51.4390,88
51.6248,67
51.8105,65
51.9963,68
52.1820,58
52.3678,56
52.5535,59
52.7393,56
52.9250,58
53.1108,54
53.2966,54
53.4823,57
53.6681,55
53.8538,66
54.0396,82
54.2253,54
54.4111,62
54.5969,64
54.7826,55
54.9684,52
55.1541,61
55.3399,63
55.5256,55
55.7114,58
55.8971,53
56.0829,56
56.2687,75
56.4544,61
56.6402,55
56.8259,59
57.0117,53
57.1974,57
57.3832,74
57.5689,70
57.7547,52
57.9405,73
58.1262,59
58.3120,55
58.4977,47
58.6835,55
58.8692,54
59.0550,55
59.2408,54
59.4265,52
59.6123,56
59.7980,49
59.9838,60
60.0024,56