File: notebooks/data/xrd_data/ML_20220718_14_SJD_4_LaB6-2min.uxd
; (content of file Y:\Sam\Apurva-07-20-2022\puck4\ML_20220718_14_SJD_0_LaB6-2min.raw)
_FILEVERSION = 3
_SAMPLE = ML_20220718_14_SJD_0_LaB6-2min
_+SAMPLE =
_SITE = USA
_USER = Administrator
_GONIOMETER_CODE = 20
; Goniometer : D8 theta/2theta, stage : Unknown
_ATTACHMENTS_CODE = 0
_GONIOMETER_RADIUS = 200.5
_FIXED_DIVSLIT = 0.6
_FIXED_SAMPLESLIT = 0
_SOLLER_SLITS = 2
_FIXED_DETSLIT = 9.55
_MONOCHROMATOR = 0
; Incident beam monochromator : None
_SOLLER_SLITS_2 = N
_THIN_FILM = N
_BETA_FILTER = Y
_FIXED_ANTISLIT = 5.89
_ANALYZER_CODE = 0
; Received beam analyzer : None
_DATEMEASURED = "26-Jul-2022 09:51:52"
_WL_UNIT = A
_WL1 = 1.5406
_WL2 = 1.54439
_WL3 = 1.39222
_WLRATIO = 0.5
_ANODE = Cu
_V4_INF_CREATOR = XRDWizard
_V4_INF_CREATOR_VERSION = V2.9.0.22
_V4_INF_WIZARD_VERSION = V2.9.0.22
_V4_INF_WIZARD_ADDINS = V2.9.0.22
_V4_INF_WIZARD_DOCTYPE = XRD
_V4_INF_OSUSER = McQueenLab
_V4_INF_USER = Administrator
_V4_INF_SITE = USA
_V4_INF_SAMPLEID = ML_20220718_14_SJD_0_LaB6-2min

; Data for range 1
_DRIVE = COUPLED
_STEPTIME = 5.64
_STEPSIZE = 0.0185756
_STEPMODE = C
_START = 5
_THETA = 2.5
_2THETA = 5
_KHI = 0
_PHI = 0
_X = 0
_Y = 0
_Z = 0
_DETECTOR = 5
; Detector type : Unknown
_DETECTORSLIT = unkn
_AUX1 = 0
_AUX2 = 0
_AUX3 = 0
_TIMESTARTED = 15
_TEMP_RATE = -1
_TEMP_DELAY = -1
_KV = 40
_MA = 40
_RANGE_WL = 1.5406
_3DPLANE = 0
_V4_ADDITIONALDETECTOR = 257
_V4_PSD2THETA = 3.371
_V4_PSDCHANNEL1 = 0
_V4_PSDAPERTURE = 12.68
_V4_PSDTYPE = 5
_V4_PSDFIXED = 0
_V4_COUNTERS_MASK = 4096
_V4_DRIVES_MASK = 0
_V4_ENCODERS_MASK = 0
_2THETACOUNTS = 1
; 2THETA  PSD
   5.0000        130
   5.1858        119
   5.3715        130
   5.5573        118
   5.7430         92
   5.9288         97
   6.1145        111
   6.3003         96
   6.4860         78
   6.6718         98
   6.8576         90
   7.0433         86
   7.2291         69
   7.4148         83
   7.6006        103
   7.7863         97
   7.9721         81
   8.1579         78
   8.3436         88
   8.5294         90
   8.7151         93
   8.9009        101
   9.0866        118
   9.2724        125
   9.4581         98
   9.6439        110
   9.8297        105
  10.0154        110
  10.2012        131
  10.3869        112
  10.5727        109
  10.7584        126
  10.9442        105
  11.1299        119
  11.3157         99
  11.5015        109
  11.6872        124
  11.8730        118
  12.0587        104
  12.2445        128
  12.4302         93
  12.6160        111
  12.8018        108
  12.9875         99
  13.1733         98
  13.3590         98
  13.5448         93
  13.7305         82
  13.9163         78
  14.1020         88
  14.2878         80
  14.4736         65
  14.6593         82
  14.8451         76
  15.0308         78
  15.2166         77
  15.4023         95
  15.5881         87
  15.7738         70
  15.9596         78
  16.1454         93
  16.3311         88
  16.5169         81
  16.7026         76
  16.8884         76
  17.0741         91
  17.2599         77
  17.4457         96
  17.6314         91
  17.8172         80
  18.0029         81
  18.1887         92
  18.3744         76
  18.5602         90
  18.7459         77
  18.9317         82
  19.1175         74
  19.3032         94
  19.4890         76
  19.6747         70
  19.8605         87
  20.0462         77
  20.2320         86
  20.4177         86
  20.6035        101
  20.7893         92
  20.9750         97
  21.1608        108
  21.3465        238
  21.5323        108
  21.7180         91
  21.9038        118
  22.0896         88
  22.2753         82
  22.4611        104
  22.6468         99
  22.8326         90
  23.0183        100
  23.2041         93
  23.3898         88
  23.5756        101
  23.7614        108
  23.9471        101
  24.1329         91
  24.3186        109
  24.5044         94
  24.6901        100
  24.8759        115
  25.0616        112
  25.2474         98
  25.4332         94
  25.6189         86
  25.8047         99
  25.9904         99
  26.1762        106
  26.3619        114
  26.5477         83
  26.7335        103
  26.9192         94
  27.1050        101
  27.2907        126
  27.4765        107
  27.6622         86
  27.8480         89
  28.0337         78
  28.2195         64
  28.4053         80
  28.5910         86
  28.7768         74
  28.9625         88
  29.1483         92
  29.3340         81
  29.5198         87
  29.7055         67
  29.8913         91
  30.0771         69
  30.2628         81
  30.4486        115
  30.6343         75
  30.8201         77
  31.0058         64
  31.1916         77
  31.3774         69
  31.5631         72
  31.7489         71
  31.9346         89
  32.1204         57
  32.3061         69
  32.4919         75
  32.6776         68
  32.8634         73
  33.0492         62
  33.2349         64
  33.4207         58
  33.6064         53
  33.7922         60
  33.9779         55
  34.1637         60
  34.3494         57
  34.5352         57
  34.7210         65
  34.9067         71
  35.0925         38
  35.2782         51
  35.4640         55
  35.6497         48
  35.8355         50
  36.0213         49
  36.2070         37
  36.3928         43
  36.5785         65
  36.7643         56
  36.9500         55
  37.1358         55
  37.3215         43
  37.5073         58
  37.6931         46
  37.8788         54
  38.0646         40
  38.2503         43
  38.4361         46
  38.6218         43
  38.8076         40
  38.9933         33
  39.1791         35
  39.3649         33
  39.5506         42
  39.7364         39
  39.9221         38
  40.1079         35
  40.2936         47
  40.4794         45
  40.6652         36
  40.8509         46
  41.0367         41
  41.2224         35
  41.4082         42
  41.5939         37
  41.7797         34
  41.9654         43
  42.1512         40
  42.3370         35
  42.5227         31
  42.7085         36
  42.8942         38
  43.0800         42
  43.2657         35
  43.4515         50
  43.6372         48
  43.8230         35
  44.0088         41
  44.1945         34
  44.3803         33
  44.5660         41
  44.7518         30
  44.9375         31
  45.1233         36
  45.3091         31
  45.4948         28
  45.6806         34
  45.8663         29
  46.0521         25
  46.2378         33
  46.4236         31
  46.6093         27
  46.7951         25
  46.9809         33
  47.1666         28
  47.3524         36
  47.5381         32
  47.7239         28
  47.9096         34
  48.0954         35
  48.2811         28
  48.4669         21
  48.6527         24
  48.8384         31
  49.0242         42
  49.2099         47
  49.3957         33
  49.5814         29
  49.7672         19
  49.9530         24
  50.1387         29
  50.3245         27
  50.5102         37
  50.6960         35
  50.8817         30
  51.0675         27
  51.2532         23
  51.4390         37
  51.6248         37
  51.8105         34
  51.9963         33
  52.1820         35
  52.3678         37
  52.5535         29
  52.7393         22
  52.9250         33
  53.1108         32
  53.2966         29
  53.4823         29
  53.6681         23
  53.8538         29
  54.0396         34
  54.2253         32
  54.4111         24
  54.5969         19
  54.7826         30
  54.9684         25
  55.1541         32
  55.3399         27
  55.5256         25
  55.7114         17
  55.8971         31
  56.0829         35
  56.2687         29
  56.4544         27
  56.6402         25
  56.8259         21
  57.0117         18
  57.1974         32
  57.3832         18
  57.5689         18
  57.7547         27
  57.9405         29
  58.1262         31
  58.3120         37
  58.4977         21
  58.6835         32
  58.8692         33
  59.0550         25
  59.2408         26
  59.4265         29
  59.6123         25
  59.7980         24
  59.9838         26
  60.0024         33