File: notebooks/data/xrd_data/ML_20220721_20_SJD_4_LaB6-4min.csv
;,2THETA,
5.0000,289
5.1858,248
5.3715,233
5.5573,212
5.7430,237
5.9288,188
6.1145,193
6.3003,197
6.4860,183
6.6718,195
6.8576,165
7.0433,181
7.2291,141
7.4148,164
7.6006,148
7.7863,174
7.9721,185
8.1579,179
8.3436,169
8.5294,188
8.7151,199
8.9009,205
9.0866,197
9.2724,227
9.4581,248
9.6439,239
9.8297,224
10.0154,237
10.2012,236
10.3869,217
10.5727,242
10.7584,231
10.9442,217
11.1299,220
11.3157,241
11.5015,250
11.6872,230
11.8730,252
12.0587,213
12.2445,265
12.4302,212
12.6160,223
12.8018,194
12.9875,212
13.1733,211
13.3590,205
13.5448,187
13.7305,191
13.9163,183
14.1020,174
14.2878,195
14.4736,182
14.6593,186
14.8451,159
15.0308,153
15.2166,163
15.4023,179
15.5881,170
15.7738,175
15.9596,186
16.1454,177
16.3311,141
16.5169,155
16.7026,157
16.8884,164
17.0741,143
17.2599,194
17.4457,147
17.6314,149
17.8172,156
18.0029,154
18.1887,159
18.3744,170
18.5602,172
18.7459,180
18.9317,168
19.1175,175
19.3032,173
19.4890,157
19.6747,183
19.8605,191
20.0462,198
20.2320,211
20.4177,180
20.6035,211
20.7893,176
20.9750,196
21.1608,238
21.3465,516
21.5323,201
21.7180,167
21.9038,194
22.0896,209
22.2753,167
22.4611,170
22.6468,192
22.8326,175
23.0183,197
23.2041,207
23.3898,200
23.5756,185
23.7614,195
23.9471,215
24.1329,195
24.3186,250
24.5044,221
24.6901,209
24.8759,176
25.0616,205
25.2474,188
25.4332,193
25.6189,206
25.8047,197
25.9904,187
26.1762,228
26.3619,194
26.5477,178
26.7335,181
26.9192,176
27.1050,208
27.2907,223
27.4765,170
27.6622,187
27.8480,187
28.0337,163
28.2195,158
28.4053,163
28.5910,180
28.7768,181
28.9625,150
29.1483,161
29.3340,148
29.5198,168
29.7055,173
29.8913,150
30.0771,168
30.2628,164
30.4486,255
30.6343,154
30.8201,158
31.0058,125
31.1916,153
31.3774,143
31.5631,141
31.7489,136
31.9346,130
32.1204,150
32.3061,155
32.4919,168
32.6776,131
32.8634,117
33.0492,122
33.2349,116
33.4207,119
33.6064,108
33.7922,124
33.9779,124
34.1637,104
34.3494,111
34.5352,123
34.7210,149
34.9067,133
35.0925,104
35.2782,112
35.4640,128
35.6497,104
35.8355,109
36.0213,91
36.2070,98
36.3928,94
36.5785,93
36.7643,110
36.9500,94
37.1358,76
37.3215,96
37.5073,126
37.6931,98
37.8788,93
38.0646,88
38.2503,86
38.4361,100
38.6218,77
38.8076,99
38.9933,107
39.1791,83
39.3649,89
39.5506,86
39.7364,93
39.9221,82
40.1079,94
40.2936,68
40.4794,84
40.6652,83
40.8509,73
41.0367,82
41.2224,52
41.4082,83
41.5939,79
41.7797,73
41.9654,89
42.1512,76
42.3370,75
42.5227,75
42.7085,90
42.8942,79
43.0800,67
43.2657,86
43.4515,85
43.6372,114
43.8230,66
44.0088,72
44.1945,77
44.3803,77
44.5660,80
44.7518,82
44.9375,73
45.1233,62
45.3091,78
45.4948,70
45.6806,67
45.8663,72
46.0521,63
46.2378,54
46.4236,64
46.6093,75
46.7951,75
46.9809,71
47.1666,71
47.3524,71
47.5381,64
47.7239,67
47.9096,47
48.0954,60
48.2811,64
48.4669,73
48.6527,53
48.8384,72
49.0242,78
49.2099,75
49.3957,46
49.5814,65
49.7672,70
49.9530,65
50.1387,45
50.3245,50
50.5102,59
50.6960,52
50.8817,62
51.0675,69
51.2532,59
51.4390,88
51.6248,67
51.8105,55
51.9963,68
52.1820,52
52.3678,68
52.5535,57
52.7393,53
52.9250,53
53.1108,34
53.2966,63
53.4823,68
53.6681,51
53.8538,55
54.0396,61
54.2253,56
54.4111,55
54.5969,62
54.7826,54
54.9684,57
55.1541,46
55.3399,52
55.5256,54
55.7114,54
55.8971,57
56.0829,55
56.2687,70
56.4544,52
56.6402,50
56.8259,53
57.0117,42
57.1974,50
57.3832,61
57.5689,59
57.7547,61
57.9405,51
58.1262,61
58.3120,60
58.4977,53
58.6835,52
58.8692,61
59.0550,65
59.2408,47
59.4265,51
59.6123,61
59.7980,48
59.9838,51
60.0024,49