File: notebooks/data/xrd_data/ML_20220718_5_SJD_4_LaB6-2min.csv
;,2THETA,
5.0000,135
5.1858,120
5.3715,99
5.5573,114
5.7430,96
5.9288,111
6.1145,84
6.3003,108
6.4860,87
6.6718,87
6.8576,86
7.0433,77
7.2291,65
7.4148,91
7.6006,63
7.7863,79
7.9721,88
8.1579,98
8.3436,97
8.5294,95
8.7151,99
8.9009,88
9.0866,112
9.2724,119
9.4581,125
9.6439,109
9.8297,123
10.0154,119
10.2012,108
10.3869,126
10.5727,131
10.7584,103
10.9442,129
11.1299,117
11.3157,118
11.5015,116
11.6872,110
11.8730,110
12.0587,120
12.2445,132
12.4302,123
12.6160,100
12.8018,98
12.9875,87
13.1733,113
13.3590,100
13.5448,97
13.7305,99
13.9163,91
14.1020,90
14.2878,102
14.4736,85
14.6593,77
14.8451,89
15.0308,76
15.2166,95
15.4023,85
15.5881,70
15.7738,76
15.9596,89
16.1454,77
16.3311,89
16.5169,77
16.7026,78
16.8884,71
17.0741,90
17.2599,96
17.4457,69
17.6314,82
17.8172,66
18.0029,79
18.1887,84
18.3744,83
18.5602,96
18.7459,84
18.9317,83
19.1175,83
19.3032,82
19.4890,79
19.6747,94
19.8605,101
20.0462,79
20.2320,82
20.4177,84
20.6035,91
20.7893,79
20.9750,81
21.1608,127
21.3465,243
21.5323,92
21.7180,96
21.9038,85
22.0896,113
22.2753,89
22.4611,95
22.6468,112
22.8326,95
23.0183,99
23.2041,105
23.3898,111
23.5756,95
23.7614,109
23.9471,97
24.1329,102
24.3186,112
24.5044,108
24.6901,75
24.8759,111
25.0616,103
25.2474,99
25.4332,99
25.6189,100
25.8047,84
25.9904,107
26.1762,97
26.3619,89
26.5477,103
26.7335,79
26.9192,87
27.1050,100
27.2907,115
27.4765,87
27.6622,85
27.8480,77
28.0337,92
28.2195,91
28.4053,70
28.5910,91
28.7768,64
28.9625,92
29.1483,95
29.3340,90
29.5198,84
29.7055,74
29.8913,73
30.0771,79
30.2628,84
30.4486,136
30.6343,79
30.8201,72
31.0058,79
31.1916,86
31.3774,68
31.5631,74
31.7489,74
31.9346,60
32.1204,66
32.3061,55
32.4919,66
32.6776,61
32.8634,63
33.0492,61
33.2349,53
33.4207,67
33.6064,45
33.7922,50
33.9779,70
34.1637,52
34.3494,60
34.5352,47
34.7210,76
34.9067,47
35.0925,65
35.2782,45
35.4640,44
35.6497,50
35.8355,42
36.0213,54
36.2070,59
36.3928,45
36.5785,52
36.7643,66
36.9500,49
37.1358,50
37.3215,41
37.5073,46
37.6931,36
37.8788,36
38.0646,40
38.2503,36
38.4361,45
38.6218,33
38.8076,45
38.9933,51
39.1791,39
39.3649,37
39.5506,38
39.7364,36
39.9221,30
40.1079,54
40.2936,29
40.4794,28
40.6652,43
40.8509,43
41.0367,43
41.2224,33
41.4082,45
41.5939,38
41.7797,38
41.9654,39
42.1512,37
42.3370,45
42.5227,40
42.7085,36
42.8942,38
43.0800,44
43.2657,42
43.4515,44
43.6372,50
43.8230,28
44.0088,32
44.1945,47
44.3803,37
44.5660,55
44.7518,34
44.9375,41
45.1233,47
45.3091,32
45.4948,40
45.6806,37
45.8663,27
46.0521,32
46.2378,32
46.4236,25
46.6093,38
46.7951,24
46.9809,21
47.1666,31
47.3524,31
47.5381,39
47.7239,33
47.9096,29
48.0954,28
48.2811,22
48.4669,26
48.6527,33
48.8384,39
49.0242,43
49.2099,40
49.3957,37
49.5814,25
49.7672,28
49.9530,27
50.1387,30
50.3245,25
50.5102,30
50.6960,26
50.8817,31
51.0675,28
51.2532,30
51.4390,28
51.6248,34
51.8105,25
51.9963,36
52.1820,28
52.3678,29
52.5535,28
52.7393,32
52.9250,29
53.1108,39
53.2966,29
53.4823,28
53.6681,30
53.8538,31
54.0396,25
54.2253,26
54.4111,31
54.5969,29
54.7826,22
54.9684,35
55.1541,27
55.3399,24
55.5256,31
55.7114,22
55.8971,30
56.0829,30
56.2687,25
56.4544,29
56.6402,35
56.8259,16
57.0117,29
57.1974,16
57.3832,22
57.5689,27
57.7547,30
57.9405,33
58.1262,33
58.3120,30
58.4977,26
58.6835,21
58.8692,33
59.0550,24
59.2408,22
59.4265,24
59.6123,25
59.7980,27
59.9838,31
60.0024,28