File: notebooks/data/xrd_data/ML_20220720_9_SJD_4_LaB6-1min.csv
;,2THETA,
5.0000,92
5.1858,98
5.3715,70
5.5573,95
5.7430,76
5.9288,77
6.1145,64
6.3003,62
6.4860,70
6.6718,57
6.8576,48
7.0433,52
7.2291,51
7.4148,67
7.6006,58
7.7863,74
7.9721,69
8.1579,66
8.3436,68
8.5294,67
8.7151,70
8.9009,98
9.0866,74
9.2724,84
9.4581,88
9.6439,61
9.8297,80
10.0154,89
10.2012,78
10.3869,75
10.5727,79
10.7584,96
10.9442,89
11.1299,107
11.3157,100
11.5015,81
11.6872,80
11.8730,79
12.0587,65
12.2445,89
12.4302,77
12.6160,75
12.8018,68
12.9875,79
13.1733,54
13.3590,70
13.5448,63
13.7305,66
13.9163,67
14.1020,54
14.2878,55
14.4736,55
14.6593,70
14.8451,65
15.0308,61
15.2166,71
15.4023,66
15.5881,50
15.7738,70
15.9596,53
16.1454,51
16.3311,53
16.5169,62
16.7026,74
16.8884,52
17.0741,70
17.2599,49
17.4457,75
17.6314,59
17.8172,54
18.0029,57
18.1887,54
18.3744,53
18.5602,68
18.7459,70
18.9317,65
19.1175,65
19.3032,59
19.4890,58
19.6747,71
19.8605,59
20.0462,59
20.2320,81
20.4177,82
20.6035,66
20.7893,65
20.9750,86
21.1608,77
21.3465,191
21.5323,67
21.7180,56
21.9038,61
22.0896,65
22.2753,62
22.4611,70
22.6468,86
22.8326,95
23.0183,74
23.2041,89
23.3898,70
23.5756,63
23.7614,78
23.9471,70
24.1329,52
24.3186,82
24.5044,80
24.6901,69
24.8759,63
25.0616,68
25.2474,68
25.4332,63
25.6189,60
25.8047,59
25.9904,72
26.1762,77
26.3619,61
26.5477,62
26.7335,69
26.9192,74
27.1050,71
27.2907,60
27.4765,72
27.6622,67
27.8480,57
28.0337,56
28.2195,58
28.4053,67
28.5910,64
28.7768,56
28.9625,51
29.1483,58
29.3340,68
29.5198,57
29.7055,57
29.8913,64
30.0771,49
30.2628,55
30.4486,93
30.6343,40
30.8201,48
31.0058,48
31.1916,56
31.3774,43
31.5631,38
31.7489,42
31.9346,58
32.1204,45
32.3061,68
32.4919,50
32.6776,50
32.8634,38
33.0492,42
33.2349,37
33.4207,39
33.6064,49
33.7922,47
33.9779,32
34.1637,42
34.3494,43
34.5352,36
34.7210,66
34.9067,46
35.0925,40
35.2782,34
35.4640,28
35.6497,30
35.8355,35
36.0213,37
36.2070,39
36.3928,26
36.5785,33
36.7643,55
36.9500,44
37.1358,30
37.3215,34
37.5073,38
37.6931,35
37.8788,39
38.0646,31
38.2503,30
38.4361,35
38.6218,26
38.8076,33
38.9933,23
39.1791,24
39.3649,36
39.5506,27
39.7364,35
39.9221,36
40.1079,28
40.2936,35
40.4794,32
40.6652,30
40.8509,33
41.0367,33
41.2224,17
41.4082,28
41.5939,33
41.7797,37
41.9654,30
42.1512,25
42.3370,24
42.5227,13
42.7085,30
42.8942,25
43.0800,26
43.2657,34
43.4515,30
43.6372,32
43.8230,20
44.0088,28
44.1945,15
44.3803,30
44.5660,26
44.7518,17
44.9375,18
45.1233,35
45.3091,39
45.4948,29
45.6806,35
45.8663,24
46.0521,21
46.2378,29
46.4236,23
46.6093,23
46.7951,20
46.9809,22
47.1666,24
47.3524,25
47.5381,28
47.7239,24
47.9096,20
48.0954,25
48.2811,21
48.4669,25
48.6527,38
48.8384,16
49.0242,27
49.2099,22
49.3957,21
49.5814,22
49.7672,20
49.9530,18
50.1387,22
50.3245,26
50.5102,13
50.6960,19
50.8817,23
51.0675,17
51.2532,25
51.4390,17
51.6248,19
51.8105,26
51.9963,26
52.1820,23
52.3678,25
52.5535,18
52.7393,34
52.9250,18
53.1108,20
53.2966,21
53.4823,26
53.6681,20
53.8538,24
54.0396,27
54.2253,18
54.4111,19
54.5969,20
54.7826,24
54.9684,19
55.1541,28
55.3399,18
55.5256,20
55.7114,13
55.8971,18
56.0829,17
56.2687,23
56.4544,24
56.6402,19
56.8259,15
57.0117,23
57.1974,21
57.3832,28
57.5689,16
57.7547,18
57.9405,21
58.1262,26
58.3120,18
58.4977,16
58.6835,14
58.8692,20
59.0550,21
59.2408,11
59.4265,22
59.6123,21
59.7980,20
59.9838,20
60.0024,15