File: notebooks/data/xrd_data/ML_20220720_7_SJD_4_LaB6-1min.csv
;,2THETA,
5.0000,92
5.1858,86
5.3715,74
5.5573,84
5.7430,59
5.9288,72
6.1145,76
6.3003,64
6.4860,55
6.6718,50
6.8576,57
7.0433,55
7.2291,56
7.4148,50
7.6006,59
7.7863,64
7.9721,76
8.1579,60
8.3436,84
8.5294,67
8.7151,76
8.9009,67
9.0866,74
9.2724,76
9.4581,78
9.6439,91
9.8297,83
10.0154,88
10.2012,74
10.3869,94
10.5727,105
10.7584,103
10.9442,88
11.1299,81
11.3157,81
11.5015,66
11.6872,78
11.8730,82
12.0587,77
12.2445,73
12.4302,69
12.6160,77
12.8018,61
12.9875,86
13.1733,79
13.3590,60
13.5448,80
13.7305,57
13.9163,68
14.1020,52
14.2878,70
14.4736,56
14.6593,48
14.8451,61
15.0308,55
15.2166,59
15.4023,58
15.5881,63
15.7738,62
15.9596,60
16.1454,60
16.3311,56
16.5169,41
16.7026,62
16.8884,63
17.0741,58
17.2599,63
17.4457,63
17.6314,56
17.8172,58
18.0029,51
18.1887,67
18.3744,57
18.5602,51
18.7459,57
18.9317,73
19.1175,73
19.3032,65
19.4890,61
19.6747,49
19.8605,68
20.0462,70
20.2320,65
20.4177,63
20.6035,60
20.7893,73
20.9750,57
21.1608,84
21.3465,199
21.5323,84
21.7180,68
21.9038,82
22.0896,61
22.2753,76
22.4611,71
22.6468,77
22.8326,67
23.0183,58
23.2041,76
23.3898,69
23.5756,91
23.7614,69
23.9471,62
24.1329,69
24.3186,79
24.5044,72
24.6901,67
24.8759,68
25.0616,72
25.2474,56
25.4332,65
25.6189,71
25.8047,80
25.9904,68
26.1762,61
26.3619,75
26.5477,64
26.7335,72
26.9192,64
27.1050,70
27.2907,92
27.4765,58
27.6622,49
27.8480,67
28.0337,75
28.2195,58
28.4053,64
28.5910,76
28.7768,61
28.9625,53
29.1483,58
29.3340,69
29.5198,57
29.7055,55
29.8913,71
30.0771,56
30.2628,65
30.4486,78
30.6343,59
30.8201,50
31.0058,63
31.1916,53
31.3774,63
31.5631,48
31.7489,49
31.9346,58
32.1204,58
32.3061,48
32.4919,46
32.6776,52
32.8634,44
33.0492,49
33.2349,54
33.4207,47
33.6064,44
33.7922,41
33.9779,41
34.1637,50
34.3494,36
34.5352,42
34.7210,44
34.9067,49
35.0925,35
35.2782,43
35.4640,41
35.6497,40
35.8355,30
36.0213,42
36.2070,31
36.3928,38
36.5785,30
36.7643,35
36.9500,26
37.1358,25
37.3215,36
37.5073,41
37.6931,29
37.8788,25
38.0646,27
38.2503,23
38.4361,43
38.6218,26
38.8076,28
38.9933,24
39.1791,28
39.3649,35
39.5506,30
39.7364,30
39.9221,28
40.1079,37
40.2936,21
40.4794,29
40.6652,26
40.8509,39
41.0367,31
41.2224,30
41.4082,28
41.5939,29
41.7797,24
41.9654,20
42.1512,24
42.3370,26
42.5227,23
42.7085,27
42.8942,37
43.0800,29
43.2657,34
43.4515,35
43.6372,39
43.8230,23
44.0088,33
44.1945,24
44.3803,27
44.5660,26
44.7518,27
44.9375,34
45.1233,25
45.3091,20
45.4948,22
45.6806,33
45.8663,29
46.0521,16
46.2378,21
46.4236,21
46.6093,16
46.7951,15
46.9809,22
47.1666,22
47.3524,25
47.5381,16
47.7239,30
47.9096,26
48.0954,21
48.2811,24
48.4669,25
48.6527,23
48.8384,24
49.0242,34
49.2099,18
49.3957,17
49.5814,14
49.7672,16
49.9530,18
50.1387,27
50.3245,27
50.5102,18
50.6960,23
50.8817,24
51.0675,33
51.2532,25
51.4390,25
51.6248,24
51.8105,28
51.9963,13
52.1820,18
52.3678,29
52.5535,21
52.7393,16
52.9250,18
53.1108,21
53.2966,28
53.4823,24
53.6681,23
53.8538,27
54.0396,32
54.2253,21
54.4111,19
54.5969,25
54.7826,16
54.9684,25
55.1541,19
55.3399,15
55.5256,19
55.7114,22
55.8971,12
56.0829,27
56.2687,23
56.4544,28
56.6402,28
56.8259,20
57.0117,23
57.1974,16
57.3832,21
57.5689,20
57.7547,13
57.9405,21
58.1262,21
58.3120,22
58.4977,16
58.6835,21
58.8692,19
59.0550,18
59.2408,20
59.4265,19
59.6123,14
59.7980,23
59.9838,19
60.0024,23