File: notebooks/data/xrd_data/ML_20220720_10_SJD_4_LaB6-1min.uxd
; (content of file Y:\Sam\Apurva-07-20-2022\puck2\ML_20220720_10_SJD_0_LaB6-1min.raw)
_FILEVERSION = 3
_SAMPLE = ML_20220720_10_SJD_0_LaB6-1mi
_+SAMPLE =
_SITE = USA
_USER = Administrator
_GONIOMETER_CODE = 20
; Goniometer : D8 theta/2theta, stage : Unknown
_ATTACHMENTS_CODE = 0
_GONIOMETER_RADIUS = 200.5
_FIXED_DIVSLIT = 0.6
_FIXED_SAMPLESLIT = 0
_SOLLER_SLITS = 2
_FIXED_DETSLIT = 9.55
_MONOCHROMATOR = 0
; Incident beam monochromator : None
_SOLLER_SLITS_2 = N
_THIN_FILM = N
_BETA_FILTER = Y
_FIXED_ANTISLIT = 5.89
_ANALYZER_CODE = 0
; Received beam analyzer : None
_DATEMEASURED = "25-Jul-2022 18:04:57"
_WL_UNIT = A
_WL1 = 1.5406
_WL2 = 1.54439
_WL3 = 1.39222
_WLRATIO = 0.5
_ANODE = Cu
_V4_INF_CREATOR = XRDWizard
_V4_INF_CREATOR_VERSION = V2.9.0.22
_V4_INF_WIZARD_VERSION = V2.9.0.22
_V4_INF_WIZARD_ADDINS = V2.9.0.22
_V4_INF_WIZARD_DOCTYPE = XRD
_V4_INF_OSUSER = McQueenLab
_V4_INF_USER = Administrator
_V4_INF_SITE = USA
_V4_INF_SAMPLEID = ML_20220720_10_SJD_0_LaB6-1mi

; Data for range 1
_DRIVE = COUPLED
_STEPTIME = 4.23
_STEPSIZE = 0.0185756
_STEPMODE = C
_START = 5
_THETA = 2.5
_2THETA = 5
_KHI = 0
_PHI = 0
_X = 0
_Y = 0
_Z = 0
_DETECTOR = 5
; Detector type : Unknown
_DETECTORSLIT = unkn
_AUX1 = 0
_AUX2 = 0
_AUX3 = 0
_TIMESTARTED = 16
_TEMP_RATE = -1
_TEMP_DELAY = -1
_KV = 40
_MA = 40
_RANGE_WL = 1.5406
_3DPLANE = 0
_V4_ADDITIONALDETECTOR = 257
_V4_PSD2THETA = 3.3766
_V4_PSDCHANNEL1 = 0
_V4_PSDAPERTURE = 12.68
_V4_PSDTYPE = 5
_V4_PSDFIXED = 0
_V4_COUNTERS_MASK = 4096
_V4_DRIVES_MASK = 0
_V4_ENCODERS_MASK = 0
_2THETACOUNTS = 1
; 2THETA  PSD
   5.0000         97
   5.1858        101
   5.3715         89
   5.5573         82
   5.7430         87
   5.9288         70
   6.1145         76
   6.3003         77
   6.4860         54
   6.6718         73
   6.8576         61
   7.0433         66
   7.2291         63
   7.4148         59
   7.6006         63
   7.7863         68
   7.9721         62
   8.1579         63
   8.3436         68
   8.5294         79
   8.7151         64
   8.9009         72
   9.0866         77
   9.2724         76
   9.4581         83
   9.6439         62
   9.8297         71
  10.0154         73
  10.2012         95
  10.3869         89
  10.5727         72
  10.7584         84
  10.9442         88
  11.1299         95
  11.3157         87
  11.5015         87
  11.6872         91
  11.8730         84
  12.0587         73
  12.2445         90
  12.4302         79
  12.6160         81
  12.8018         75
  12.9875         81
  13.1733         70
  13.3590         82
  13.5448         69
  13.7305         79
  13.9163         60
  14.1020         53
  14.2878         60
  14.4736         61
  14.6593         62
  14.8451         51
  15.0308         64
  15.2166         68
  15.4023         55
  15.5881         59
  15.7738         56
  15.9596         86
  16.1454         60
  16.3311         59
  16.5169         54
  16.7026         61
  16.8884         55
  17.0741         62
  17.2599         74
  17.4457         59
  17.6314         67
  17.8172         57
  18.0029         52
  18.1887         64
  18.3744         55
  18.5602         70
  18.7459         62
  18.9317         56
  19.1175         68
  19.3032         64
  19.4890         74
  19.6747         66
  19.8605         69
  20.0462         65
  20.2320         68
  20.4177         72
  20.6035         76
  20.7893         82
  20.9750         72
  21.1608         97
  21.3465        217
  21.5323         61
  21.7180         69
  21.9038         80
  22.0896         65
  22.2753         79
  22.4611         79
  22.6468         66
  22.8326         71
  23.0183         74
  23.2041         72
  23.3898         84
  23.5756         64
  23.7614         68
  23.9471         75
  24.1329         81
  24.3186         92
  24.5044         78
  24.6901         80
  24.8759         63
  25.0616         69
  25.2474         74
  25.4332         67
  25.6189         58
  25.8047         75
  25.9904         64
  26.1762         63
  26.3619         65
  26.5477         71
  26.7335         68
  26.9192         68
  27.1050         83
  27.2907         90
  27.4765         70
  27.6622         61
  27.8480         59
  28.0337         59
  28.2195         51
  28.4053         64
  28.5910         57
  28.7768         66
  28.9625         65
  29.1483         52
  29.3340         58
  29.5198         64
  29.7055         45
  29.8913         61
  30.0771         54
  30.2628         76
  30.4486         97
  30.6343         58
  30.8201         68
  31.0058         58
  31.1916         38
  31.3774         50
  31.5631         50
  31.7489         57
  31.9346         47
  32.1204         45
  32.3061         44
  32.4919         58
  32.6776         48
  32.8634         40
  33.0492         42
  33.2349         58
  33.4207         33
  33.6064         42
  33.7922         37
  33.9779         39
  34.1637         33
  34.3494         42
  34.5352         35
  34.7210         62
  34.9067         43
  35.0925         40
  35.2782         36
  35.4640         48
  35.6497         38
  35.8355         42
  36.0213         40
  36.2070         33
  36.3928         37
  36.5785         30
  36.7643         31
  36.9500         39
  37.1358         29
  37.3215         44
  37.5073         48
  37.6931         23
  37.8788         38
  38.0646         29
  38.2503         35
  38.4361         28
  38.6218         37
  38.8076         37
  38.9933         33
  39.1791         37
  39.3649         22
  39.5506         25
  39.7364         31
  39.9221         34
  40.1079         32
  40.2936         32
  40.4794         23
  40.6652         27
  40.8509         27
  41.0367         29
  41.2224         37
  41.4082         25
  41.5939         29
  41.7797         35
  41.9654         25
  42.1512         30
  42.3370         29
  42.5227         27
  42.7085         39
  42.8942         25
  43.0800         25
  43.2657         35
  43.4515         31
  43.6372         32
  43.8230         26
  44.0088         27
  44.1945         23
  44.3803         28
  44.5660         20
  44.7518         25
  44.9375         37
  45.1233         21
  45.3091         38
  45.4948         28
  45.6806         31
  45.8663         25
  46.0521         34
  46.2378         20
  46.4236         21
  46.6093         25
  46.7951         30
  46.9809         21
  47.1666         25
  47.3524         28
  47.5381         21
  47.7239         22
  47.9096         24
  48.0954         18
  48.2811         25
  48.4669         25
  48.6527         27
  48.8384         20
  49.0242         37
  49.2099         24
  49.3957         25
  49.5814         26
  49.7672         20
  49.9530         26
  50.1387         24
  50.3245         30
  50.5102         17
  50.6960         21
  50.8817         26
  51.0675         28
  51.2532         22
  51.4390         32
  51.6248         26
  51.8105         34
  51.9963         32
  52.1820         19
  52.3678          7
  52.5535         18
  52.7393         17
  52.9250         19
  53.1108         19
  53.2966         25
  53.4823         16
  53.6681         22
  53.8538         21
  54.0396         21
  54.2253         28
  54.4111         20
  54.5969         24
  54.7826         24
  54.9684         18
  55.1541         21
  55.3399         14
  55.5256         22
  55.7114         25
  55.8971         18
  56.0829         18
  56.2687         24
  56.4544         29
  56.6402         22
  56.8259         16
  57.0117         21
  57.1974         23
  57.3832         15
  57.5689         17
  57.7547         17
  57.9405         16
  58.1262         22
  58.3120         22
  58.4977         24
  58.6835         24
  58.8692         19
  59.0550         15
  59.2408         21
  59.4265         22
  59.6123          8
  59.7980         22
  59.9838         18
  60.0024         15