File: notebooks/data/xrd_data/ML_20220718_27_SJD_4_LaB6-2min.csv
;,2THETA,
5.0000,133
5.1858,122
5.3715,108
5.5573,107
5.7430,120
5.9288,120
6.1145,89
6.3003,88
6.4860,84
6.6718,88
6.8576,84
7.0433,85
7.2291,75
7.4148,89
7.6006,107
7.7863,82
7.9721,99
8.1579,107
8.3436,102
8.5294,98
8.7151,95
8.9009,112
9.0866,103
9.2724,109
9.4581,119
9.6439,119
9.8297,121
10.0154,133
10.2012,119
10.3869,129
10.5727,119
10.7584,96
10.9442,134
11.1299,121
11.3157,113
11.5015,100
11.6872,123
11.8730,120
12.0587,100
12.2445,98
12.4302,104
12.6160,107
12.8018,113
12.9875,108
13.1733,97
13.3590,94
13.5448,96
13.7305,102
13.9163,100
14.1020,93
14.2878,91
14.4736,86
14.6593,81
14.8451,83
15.0308,78
15.2166,75
15.4023,83
15.5881,80
15.7738,69
15.9596,85
16.1454,65
16.3311,83
16.5169,80
16.7026,92
16.8884,78
17.0741,91
17.2599,78
17.4457,88
17.6314,78
17.8172,83
18.0029,95
18.1887,70
18.3744,86
18.5602,86
18.7459,88
18.9317,80
19.1175,81
19.3032,82
19.4890,91
19.6747,99
19.8605,86
20.0462,91
20.2320,96
20.4177,99
20.6035,103
20.7893,90
20.9750,100
21.1608,103
21.3465,277
21.5323,92
21.7180,87
21.9038,95
22.0896,97
22.2753,102
22.4611,73
22.6468,100
22.8326,97
23.0183,98
23.2041,97
23.3898,94
23.5756,105
23.7614,116
23.9471,102
24.1329,107
24.3186,114
24.5044,85
24.6901,103
24.8759,100
25.0616,104
25.2474,88
25.4332,104
25.6189,95
25.8047,92
25.9904,90
26.1762,89
26.3619,113
26.5477,91
26.7335,110
26.9192,88
27.1050,90
27.2907,107
27.4765,93
27.6622,103
27.8480,79
28.0337,92
28.2195,90
28.4053,81
28.5910,78
28.7768,89
28.9625,68
29.1483,67
29.3340,68
29.5198,82
29.7055,101
29.8913,71
30.0771,75
30.2628,89
30.4486,121
30.6343,77
30.8201,67
31.0058,73
31.1916,74
31.3774,68
31.5631,68
31.7489,57
31.9346,57
32.1204,68
32.3061,52
32.4919,78
32.6776,65
32.8634,75
33.0492,62
33.2349,59
33.4207,61
33.6064,50
33.7922,45
33.9779,52
34.1637,63
34.3494,47
34.5352,58
34.7210,78
34.9067,65
35.0925,67
35.2782,54
35.4640,39
35.6497,48
35.8355,55
36.0213,37
36.2070,38
36.3928,50
36.5785,59
36.7643,45
36.9500,51
37.1358,44
37.3215,41
37.5073,54
37.6931,52
37.8788,53
38.0646,37
38.2503,41
38.4361,41
38.6218,47
38.8076,49
38.9933,43
39.1791,51
39.3649,46
39.5506,32
39.7364,39
39.9221,38
40.1079,24
40.2936,39
40.4794,31
40.6652,38
40.8509,40
41.0367,39
41.2224,41
41.4082,40
41.5939,30
41.7797,52
41.9654,32
42.1512,45
42.3370,32
42.5227,34
42.7085,35
42.8942,39
43.0800,34
43.2657,45
43.4515,56
43.6372,50
43.8230,32
44.0088,33
44.1945,32
44.3803,37
44.5660,44
44.7518,34
44.9375,45
45.1233,44
45.3091,26
45.4948,32
45.6806,32
45.8663,36
46.0521,31
46.2378,23
46.4236,26
46.6093,20
46.7951,39
46.9809,33
47.1666,28
47.3524,31
47.5381,34
47.7239,35
47.9096,32
48.0954,28
48.2811,32
48.4669,27
48.6527,31
48.8384,25
49.0242,37
49.2099,36
49.3957,33
49.5814,23
49.7672,29
49.9530,31
50.1387,43
50.3245,29
50.5102,35
50.6960,35
50.8817,29
51.0675,32
51.2532,32
51.4390,28
51.6248,35
51.8105,39
51.9963,34
52.1820,31
52.3678,35
52.5535,30
52.7393,23
52.9250,32
53.1108,30
53.2966,31
53.4823,24
53.6681,34
53.8538,34
54.0396,28
54.2253,28
54.4111,29
54.5969,26
54.7826,25
54.9684,34
55.1541,25
55.3399,36
55.5256,26
55.7114,21
55.8971,29
56.0829,28
56.2687,30
56.4544,31
56.6402,25
56.8259,20
57.0117,28
57.1974,25
57.3832,29
57.5689,29
57.7547,30
57.9405,32
58.1262,32
58.3120,21
58.4977,34
58.6835,28
58.8692,24
59.0550,36
59.2408,18
59.4265,27
59.6123,32
59.7980,19
59.9838,29
60.0024,30