File: notebooks/data/xrd_data/ML_20220720_0_SJD_4_LaB6-1min.uxd
; (content of file Y:\Sam\Apurva-07-20-2022\puck4\ML_20220718_0_SJD_0_LaB6-1min.raw)
_FILEVERSION = 3
_SAMPLE = ML_20220718_0_SJD_0_LaB6-1mi
_+SAMPLE =
_SITE = USA
_USER = Administrator
_GONIOMETER_CODE = 20
; Goniometer : D8 theta/2theta, stage : Unknown
_ATTACHMENTS_CODE = 0
_GONIOMETER_RADIUS = 200.5
_FIXED_DIVSLIT = 0.6
_FIXED_SAMPLESLIT = 0
_SOLLER_SLITS = 2
_FIXED_DETSLIT = 9.55
_MONOCHROMATOR = 0
; Incident beam monochromator : None
_SOLLER_SLITS_2 = N
_THIN_FILM = N
_BETA_FILTER = Y
_FIXED_ANTISLIT = 5.89
_ANALYZER_CODE = 0
; Received beam analyzer : None
_DATEMEASURED = "21-Jul-2022 02:58:41"
_WL_UNIT = A
_WL1 = 1.5406
_WL2 = 1.54439
_WL3 = 1.39222
_WLRATIO = 0.5
_ANODE = Cu
_V4_INF_CREATOR = XRDWizard
_V4_INF_CREATOR_VERSION = V2.9.0.22
_V4_INF_WIZARD_VERSION = V2.9.0.22
_V4_INF_WIZARD_ADDINS = V2.9.0.22
_V4_INF_WIZARD_DOCTYPE = XRD
_V4_INF_OSUSER = McQueenLab
_V4_INF_USER = Administrator
_V4_INF_SITE = USA
_V4_INF_SAMPLEID = ML_20220718_0_SJD_0_LaB6-1mi

; Data for range 1
_DRIVE = COUPLED
_STEPTIME = 4.23
_STEPSIZE = 0.0185756
_STEPMODE = C
_START = 5
_THETA = 2.5
_2THETA = 5
_KHI = 0
_PHI = 0
_X = 0
_Y = 0
_Z = 0
_DETECTOR = 5
; Detector type : Unknown
_DETECTORSLIT = unkn
_AUX1 = 0
_AUX2 = 0
_AUX3 = 0
_TIMESTARTED = 15
_TEMP_RATE = -1
_TEMP_DELAY = -1
_KV = 40
_MA = 40
_RANGE_WL = 1.5406
_3DPLANE = 0
_V4_ADDITIONALDETECTOR = 257
_V4_PSD2THETA = 3.3706
_V4_PSDCHANNEL1 = 0
_V4_PSDAPERTURE = 12.68
_V4_PSDTYPE = 5
_V4_PSDFIXED = 0
_V4_COUNTERS_MASK = 4096
_V4_DRIVES_MASK = 0
_V4_ENCODERS_MASK = 0
_2THETACOUNTS = 1
; 2THETA  PSD
   5.0000         84
   5.1858         76
   5.3715         83
   5.5573         91
   5.7430         62
   5.9288         82
   6.1145         63
   6.3003         61
   6.4860         62
   6.6718         54
   6.8576         75
   7.0433         55
   7.2291         65
   7.4148         53
   7.6006         56
   7.7863         61
   7.9721         60
   8.1579         77
   8.3436         70
   8.5294         69
   8.7151         78
   8.9009         72
   9.0866         67
   9.2724         85
   9.4581         76
   9.6439         74
   9.8297         94
  10.0154         74
  10.2012         97
  10.3869         82
  10.5727         81
  10.7584         96
  10.9442        101
  11.1299         90
  11.3157         84
  11.5015         86
  11.6872         94
  11.8730         85
  12.0587         84
  12.2445         75
  12.4302         75
  12.6160         75
  12.8018         69
  12.9875         55
  13.1733         82
  13.3590         68
  13.5448         79
  13.7305         54
  13.9163         69
  14.1020         70
  14.2878         54
  14.4736         72
  14.6593         57
  14.8451         57
  15.0308         60
  15.2166         59
  15.4023         50
  15.5881         59
  15.7738         52
  15.9596         63
  16.1454         63
  16.3311         53
  16.5169         69
  16.7026         52
  16.8884         75
  17.0741         63
  17.2599         54
  17.4457         58
  17.6314         46
  17.8172         55
  18.0029         59
  18.1887         63
  18.3744         64
  18.5602         59
  18.7459         54
  18.9317         53
  19.1175         72
  19.3032         61
  19.4890         68
  19.6747         64
  19.8605         64
  20.0462         60
  20.2320         51
  20.4177         58
  20.6035         67
  20.7893         68
  20.9750         73
  21.1608         82
  21.3465        182
  21.5323         73
  21.7180         80
  21.9038         66
  22.0896         73
  22.2753         72
  22.4611         74
  22.6468         82
  22.8326         73
  23.0183         77
  23.2041         59
  23.3898         66
  23.5756         73
  23.7614         69
  23.9471         86
  24.1329         76
  24.3186         81
  24.5044         69
  24.6901         77
  24.8759         86
  25.0616         69
  25.2474         64
  25.4332         68
  25.6189         82
  25.8047         83
  25.9904         68
  26.1762         72
  26.3619         66
  26.5477         64
  26.7335         64
  26.9192         71
  27.1050         63
  27.2907         68
  27.4765         63
  27.6622         69
  27.8480         69
  28.0337         72
  28.2195         69
  28.4053         57
  28.5910         65
  28.7768         52
  28.9625         59
  29.1483         46
  29.3340         53
  29.5198         57
  29.7055         58
  29.8913         51
  30.0771         55
  30.2628         65
  30.4486         97
  30.6343         57
  30.8201         72
  31.0058         52
  31.1916         54
  31.3774         51
  31.5631         38
  31.7489         64
  31.9346         35
  32.1204         48
  32.3061         44
  32.4919         52
  32.6776         47
  32.8634         55
  33.0492         53
  33.2349         40
  33.4207         38
  33.6064         50
  33.7922         49
  33.9779         45
  34.1637         48
  34.3494         46
  34.5352         43
  34.7210         55
  34.9067         43
  35.0925         36
  35.2782         40
  35.4640         17
  35.6497         35
  35.8355         39
  36.0213         33
  36.2070         28
  36.3928         38
  36.5785         35
  36.7643         27
  36.9500         43
  37.1358         39
  37.3215         42
  37.5073         42
  37.6931         28
  37.8788         19
  38.0646         32
  38.2503         26
  38.4361         38
  38.6218         29
  38.8076         32
  38.9933         31
  39.1791         24
  39.3649         26
  39.5506         20
  39.7364         29
  39.9221         31
  40.1079         20
  40.2936         32
  40.4794         33
  40.6652         30
  40.8509         19
  41.0367         32
  41.2224         27
  41.4082         23
  41.5939         24
  41.7797         20
  41.9654         31
  42.1512         32
  42.3370         36
  42.5227         25
  42.7085         29
  42.8942         29
  43.0800         33
  43.2657         29
  43.4515         49
  43.6372         32
  43.8230         17
  44.0088         27
  44.1945         22
  44.3803         28
  44.5660         27
  44.7518         35
  44.9375         27
  45.1233         26
  45.3091         19
  45.4948         31
  45.6806         21
  45.8663         32
  46.0521         20
  46.2378         23
  46.4236         25
  46.6093         26
  46.7951         21
  46.9809         26
  47.1666         28
  47.3524         28
  47.5381         20
  47.7239         26
  47.9096         24
  48.0954         28
  48.2811         25
  48.4669         24
  48.6527         28
  48.8384         24
  49.0242         35
  49.2099         25
  49.3957         29
  49.5814         30
  49.7672         23
  49.9530         20
  50.1387         27
  50.3245         20
  50.5102         22
  50.6960         22
  50.8817         23
  51.0675         19
  51.2532         26
  51.4390         20
  51.6248         25
  51.8105         23
  51.9963         27
  52.1820         21
  52.3678         20
  52.5535         27
  52.7393         18
  52.9250         30
  53.1108         19
  53.2966         23
  53.4823         17
  53.6681         23
  53.8538         15
  54.0396         34
  54.2253         17
  54.4111         22
  54.5969         24
  54.7826         12
  54.9684         20
  55.1541         14
  55.3399         15
  55.5256         18
  55.7114         21
  55.8971         16
  56.0829         20
  56.2687         22
  56.4544         27
  56.6402         23
  56.8259         21
  57.0117         26
  57.1974         24
  57.3832         14
  57.5689         16
  57.7547         13
  57.9405         19
  58.1262         13
  58.3120         19
  58.4977         27
  58.6835         19
  58.8692         21
  59.0550         24
  59.2408         27
  59.4265         16
  59.6123         16
  59.7980         17
  59.9838         17
  60.0024         20