File: notebooks/data/xrd_data/ML_20220720_39_SJD_4_LaB6-1min.csv
;,2THETA,
5.0000,103
5.1858,79
5.3715,83
5.5573,80
5.7430,92
5.9288,65
6.1145,76
6.3003,68
6.4860,67
6.6718,49
6.8576,58
7.0433,67
7.2291,70
7.4148,59
7.6006,68
7.7863,75
7.9721,75
8.1579,69
8.3436,69
8.5294,73
8.7151,73
8.9009,61
9.0866,107
9.2724,71
9.4581,78
9.6439,72
9.8297,98
10.0154,62
10.2012,105
10.3869,84
10.5727,89
10.7584,96
10.9442,93
11.1299,88
11.3157,95
11.5015,89
11.6872,98
11.8730,88
12.0587,96
12.2445,87
12.4302,91
12.6160,71
12.8018,68
12.9875,73
13.1733,86
13.3590,67
13.5448,75
13.7305,88
13.9163,66
14.1020,69
14.2878,52
14.4736,82
14.6593,61
14.8451,47
15.0308,52
15.2166,61
15.4023,58
15.5881,68
15.7738,54
15.9596,49
16.1454,67
16.3311,76
16.5169,57
16.7026,64
16.8884,48
17.0741,60
17.2599,53
17.4457,54
17.6314,53
17.8172,40
18.0029,37
18.1887,58
18.3744,57
18.5602,64
18.7459,63
18.9317,66
19.1175,60
19.3032,60
19.4890,53
19.6747,71
19.8605,65
20.0462,57
20.2320,70
20.4177,72
20.6035,70
20.7893,52
20.9750,77
21.1608,89
21.3465,173
21.5323,70
21.7180,66
21.9038,82
22.0896,75
22.2753,77
22.4611,67
22.6468,61
22.8326,72
23.0183,79
23.2041,66
23.3898,69
23.5756,64
23.7614,83
23.9471,76
24.1329,102
24.3186,66
24.5044,83
24.6901,80
24.8759,85
25.0616,69
25.2474,67
25.4332,81
25.6189,67
25.8047,75
25.9904,69
26.1762,63
26.3619,65
26.5477,81
26.7335,77
26.9192,82
27.1050,69
27.2907,82
27.4765,56
27.6622,80
27.8480,58
28.0337,65
28.2195,61
28.4053,63
28.5910,57
28.7768,69
28.9625,73
29.1483,57
29.3340,64
29.5198,64
29.7055,68
29.8913,64
30.0771,65
30.2628,64
30.4486,88
30.6343,52
30.8201,52
31.0058,34
31.1916,58
31.3774,55
31.5631,43
31.7489,47
31.9346,67
32.1204,54
32.3061,51
32.4919,51
32.6776,52
32.8634,48
33.0492,47
33.2349,49
33.4207,47
33.6064,37
33.7922,50
33.9779,49
34.1637,37
34.3494,32
34.5352,43
34.7210,52
34.9067,46
35.0925,41
35.2782,46
35.4640,35
35.6497,54
35.8355,37
36.0213,31
36.2070,34
36.3928,40
36.5785,38
36.7643,35
36.9500,31
37.1358,33
37.3215,42
37.5073,36
37.6931,39
37.8788,31
38.0646,32
38.2503,33
38.4361,28
38.6218,31
38.8076,26
38.9933,29
39.1791,27
39.3649,33
39.5506,26
39.7364,23
39.9221,36
40.1079,22
40.2936,28
40.4794,23
40.6652,33
40.8509,36
41.0367,23
41.2224,21
41.4082,24
41.5939,32
41.7797,26
41.9654,36
42.1512,29
42.3370,25
42.5227,34
42.7085,29
42.8942,27
43.0800,28
43.2657,32
43.4515,33
43.6372,41
43.8230,28
44.0088,17
44.1945,28
44.3803,21
44.5660,27
44.7518,27
44.9375,26
45.1233,21
45.3091,27
45.4948,21
45.6806,25
45.8663,31
46.0521,21
46.2378,28
46.4236,23
46.6093,22
46.7951,23
46.9809,23
47.1666,19
47.3524,18
47.5381,25
47.7239,25
47.9096,21
48.0954,22
48.2811,27
48.4669,27
48.6527,23
48.8384,27
49.0242,28
49.2099,22
49.3957,28
49.5814,26
49.7672,21
49.9530,25
50.1387,27
50.3245,19
50.5102,18
50.6960,18
50.8817,27
51.0675,21
51.2532,29
51.4390,32
51.6248,23
51.8105,25
51.9963,27
52.1820,24
52.3678,28
52.5535,29
52.7393,29
52.9250,15
53.1108,24
53.2966,23
53.4823,23
53.6681,17
53.8538,19
54.0396,20
54.2253,17
54.4111,25
54.5969,16
54.7826,17
54.9684,19
55.1541,18
55.3399,20
55.5256,23
55.7114,22
55.8971,28
56.0829,23
56.2687,24
56.4544,25
56.6402,25
56.8259,26
57.0117,13
57.1974,22
57.3832,21
57.5689,20
57.7547,28
57.9405,20
58.1262,26
58.3120,25
58.4977,19
58.6835,10
58.8692,24
59.0550,15
59.2408,16
59.4265,19
59.6123,21
59.7980,15
59.9838,24
60.0024,21