File: notebooks/data/xrd_data/ML_20220718_47_SJD_4_LaB6-1min.csv
;,2THETA,
5.0000,88
5.1858,87
5.3715,86
5.5573,82
5.7430,68
5.9288,99
6.1145,79
6.3003,81
6.4860,66
6.6718,64
6.8576,46
7.0433,72
7.2291,50
7.4148,78
7.6006,60
7.7863,76
7.9721,52
8.1579,65
8.3436,70
8.5294,77
8.7151,74
8.9009,71
9.0866,71
9.2724,73
9.4581,68
9.6439,87
9.8297,87
10.0154,83
10.2012,74
10.3869,88
10.5727,78
10.7584,95
10.9442,92
11.1299,96
11.3157,80
11.5015,107
11.6872,91
11.8730,86
12.0587,80
12.2445,69
12.4302,63
12.6160,79
12.8018,75
12.9875,74
13.1733,85
13.3590,65
13.5448,100
13.7305,60
13.9163,65
14.1020,63
14.2878,66
14.4736,66
14.6593,84
14.8451,60
15.0308,63
15.2166,63
15.4023,64
15.5881,70
15.7738,70
15.9596,55
16.1454,68
16.3311,47
16.5169,66
16.7026,60
16.8884,55
17.0741,67
17.2599,65
17.4457,64
17.6314,65
17.8172,60
18.0029,39
18.1887,73
18.3744,73
18.5602,63
18.7459,58
18.9317,70
19.1175,58
19.3032,59
19.4890,69
19.6747,52
19.8605,72
20.0462,60
20.2320,72
20.4177,55
20.6035,66
20.7893,68
20.9750,73
21.1608,91
21.3465,199
21.5323,74
21.7180,71
21.9038,64
22.0896,67
22.2753,59
22.4611,77
22.6468,65
22.8326,74
23.0183,83
23.2041,72
23.3898,78
23.5756,58
23.7614,85
23.9471,79
24.1329,67
24.3186,78
24.5044,75
24.6901,76
24.8759,77
25.0616,78
25.2474,69
25.4332,86
25.6189,91
25.8047,70
25.9904,60
26.1762,67
26.3619,71
26.5477,66
26.7335,60
26.9192,60
27.1050,70
27.2907,78
27.4765,74
27.6622,74
27.8480,70
28.0337,67
28.2195,55
28.4053,46
28.5910,63
28.7768,74
28.9625,63
29.1483,76
29.3340,72
29.5198,56
29.7055,49
29.8913,66
30.0771,51
30.2628,70
30.4486,100
30.6343,58
30.8201,54
31.0058,54
31.1916,62
31.3774,39
31.5631,52
31.7489,44
31.9346,42
32.1204,54
32.3061,51
32.4919,64
32.6776,28
32.8634,50
33.0492,47
33.2349,46
33.4207,35
33.6064,47
33.7922,45
33.9779,40
34.1637,37
34.3494,38
34.5352,42
34.7210,53
34.9067,47
35.0925,40
35.2782,46
35.4640,30
35.6497,41
35.8355,33
36.0213,41
36.2070,37
36.3928,36
36.5785,35
36.7643,30
36.9500,27
37.1358,38
37.3215,48
37.5073,39
37.6931,31
37.8788,31
38.0646,29
38.2503,27
38.4361,34
38.6218,27
38.8076,42
38.9933,35
39.1791,31
39.3649,25
39.5506,20
39.7364,26
39.9221,30
40.1079,35
40.2936,37
40.4794,22
40.6652,32
40.8509,39
41.0367,29
41.2224,29
41.4082,28
41.5939,29
41.7797,31
41.9654,28
42.1512,26
42.3370,26
42.5227,24
42.7085,27
42.8942,17
43.0800,36
43.2657,22
43.4515,37
43.6372,42
43.8230,22
44.0088,29
44.1945,29
44.3803,29
44.5660,34
44.7518,22
44.9375,29
45.1233,29
45.3091,17
45.4948,26
45.6806,28
45.8663,21
46.0521,32
46.2378,21
46.4236,33
46.6093,16
46.7951,27
46.9809,24
47.1666,23
47.3524,17
47.5381,36
47.7239,29
47.9096,22
48.0954,29
48.2811,17
48.4669,25
48.6527,26
48.8384,14
49.0242,27
49.2099,22
49.3957,26
49.5814,20
49.7672,21
49.9530,19
50.1387,20
50.3245,20
50.5102,16
50.6960,24
50.8817,24
51.0675,23
51.2532,24
51.4390,24
51.6248,31
51.8105,19
51.9963,23
52.1820,25
52.3678,13
52.5535,9
52.7393,21
52.9250,25
53.1108,20
53.2966,21
53.4823,17
53.6681,27
53.8538,22
54.0396,28
54.2253,29
54.4111,16
54.5969,19
54.7826,15
54.9684,22
55.1541,24
55.3399,13
55.5256,16
55.7114,16
55.8971,16
56.0829,20
56.2687,23
56.4544,20
56.6402,23
56.8259,22
57.0117,17
57.1974,22
57.3832,24
57.5689,21
57.7547,20
57.9405,23
58.1262,31
58.3120,16
58.4977,14
58.6835,19
58.8692,17
59.0550,24
59.2408,20
59.4265,19
59.6123,23
59.7980,18
59.9838,17
60.0024,26