File: notebooks/data/xrd_data/ML_20220718_38_SJD_4_LaB6-2min.csv
;,2THETA,
5.0000,124
5.1858,122
5.3715,110
5.5573,101
5.7430,104
5.9288,102
6.1145,79
6.3003,94
6.4860,92
6.6718,89
6.8576,77
7.0433,76
7.2291,75
7.4148,76
7.6006,84
7.7863,94
7.9721,88
8.1579,94
8.3436,108
8.5294,92
8.7151,91
8.9009,99
9.0866,100
9.2724,102
9.4581,99
9.6439,107
9.8297,115
10.0154,113
10.2012,112
10.3869,130
10.5727,108
10.7584,129
10.9442,114
11.1299,112
11.3157,106
11.5015,118
11.6872,128
11.8730,122
12.0587,112
12.2445,105
12.4302,95
12.6160,92
12.8018,90
12.9875,86
13.1733,95
13.3590,89
13.5448,97
13.7305,80
13.9163,106
14.1020,93
14.2878,80
14.4736,87
14.6593,77
14.8451,88
15.0308,59
15.2166,71
15.4023,76
15.5881,92
15.7738,97
15.9596,80
16.1454,72
16.3311,90
16.5169,72
16.7026,85
16.8884,96
17.0741,80
17.2599,87
17.4457,92
17.6314,72
17.8172,70
18.0029,88
18.1887,67
18.3744,85
18.5602,88
18.7459,84
18.9317,78
19.1175,86
19.3032,91
19.4890,71
19.6747,80
19.8605,84
20.0462,73
20.2320,82
20.4177,100
20.6035,80
20.7893,91
20.9750,101
21.1608,128
21.3465,261
21.5323,102
21.7180,105
21.9038,84
22.0896,109
22.2753,109
22.4611,99
22.6468,106
22.8326,97
23.0183,86
23.2041,103
23.3898,108
23.5756,80
23.7614,105
23.9471,102
24.1329,99
24.3186,111
24.5044,103
24.6901,92
24.8759,109
25.0616,99
25.2474,105
25.4332,96
25.6189,93
25.8047,90
25.9904,103
26.1762,79
26.3619,83
26.5477,89
26.7335,85
26.9192,80
27.1050,91
27.2907,103
27.4765,103
27.6622,69
27.8480,110
28.0337,72
28.2195,78
28.4053,80
28.5910,77
28.7768,76
28.9625,77
29.1483,80
29.3340,78
29.5198,83
29.7055,83
29.8913,75
30.0771,79
30.2628,77
30.4486,113
30.6343,65
30.8201,65
31.0058,66
31.1916,92
31.3774,72
31.5631,69
31.7489,74
31.9346,59
32.1204,63
32.3061,57
32.4919,80
32.6776,77
32.8634,66
33.0492,52
33.2349,71
33.4207,64
33.6064,55
33.7922,47
33.9779,52
34.1637,53
34.3494,61
34.5352,54
34.7210,68
34.9067,59
35.0925,47
35.2782,52
35.4640,56
35.6497,47
35.8355,48
36.0213,56
36.2070,49
36.3928,46
36.5785,48
36.7643,42
36.9500,32
37.1358,45
37.3215,50
37.5073,54
37.6931,43
37.8788,48
38.0646,43
38.2503,40
38.4361,31
38.6218,34
38.8076,57
38.9933,37
39.1791,45
39.3649,37
39.5506,33
39.7364,41
39.9221,33
40.1079,40
40.2936,35
40.4794,35
40.6652,24
40.8509,42
41.0367,42
41.2224,28
41.4082,34
41.5939,35
41.7797,31
41.9654,32
42.1512,41
42.3370,40
42.5227,38
42.7085,35
42.8942,39
43.0800,42
43.2657,34
43.4515,49
43.6372,47
43.8230,40
44.0088,38
44.1945,31
44.3803,35
44.5660,48
44.7518,24
44.9375,27
45.1233,36
45.3091,32
45.4948,42
45.6806,32
45.8663,31
46.0521,22
46.2378,34
46.4236,42
46.6093,26
46.7951,34
46.9809,36
47.1666,29
47.3524,28
47.5381,32
47.7239,35
47.9096,32
48.0954,29
48.2811,28
48.4669,36
48.6527,34
48.8384,27
49.0242,34
49.2099,29
49.3957,25
49.5814,24
49.7672,22
49.9530,29
50.1387,24
50.3245,28
50.5102,25
50.6960,33
50.8817,27
51.0675,23
51.2532,30
51.4390,24
51.6248,28
51.8105,30
51.9963,27
52.1820,20
52.3678,21
52.5535,30
52.7393,29
52.9250,34
53.1108,23
53.2966,20
53.4823,25
53.6681,38
53.8538,32
54.0396,40
54.2253,34
54.4111,30
54.5969,30
54.7826,20
54.9684,22
55.1541,30
55.3399,22
55.5256,32
55.7114,21
55.8971,24
56.0829,29
56.2687,27
56.4544,30
56.6402,26
56.8259,18
57.0117,27
57.1974,19
57.3832,21
57.5689,24
57.7547,37
57.9405,22
58.1262,25
58.3120,19
58.4977,25
58.6835,36
58.8692,24
59.0550,26
59.2408,22
59.4265,27
59.6123,10
59.7980,23
59.9838,23
60.0024,24