File: notebooks/data/xrd_data/ML_20220721_15_SJD_4_LaB6-4min.uxd
; (content of file Y:\Sam\Apurva-07-20-2022\puck1\ML_20220721_15_SJD_0_LaB6-4min.raw)
_FILEVERSION = 3
_SAMPLE = ML_20220721_15_SJD_0_LaB6-4min
_+SAMPLE =
_SITE = USA
_USER = Administrator
_GONIOMETER_CODE = 20
; Goniometer : D8 theta/2theta, stage : Unknown
_ATTACHMENTS_CODE = 0
_GONIOMETER_RADIUS = 200.5
_FIXED_DIVSLIT = 0.6
_FIXED_SAMPLESLIT = 0
_SOLLER_SLITS = 2
_FIXED_DETSLIT = 9.55
_MONOCHROMATOR = 0
; Incident beam monochromator : None
_SOLLER_SLITS_2 = N
_THIN_FILM = N
_BETA_FILTER = Y
_FIXED_ANTISLIT = 5.89
_ANALYZER_CODE = 0
; Received beam analyzer : None
_DATEMEASURED = "25-Jul-2022 14:59:49"
_WL_UNIT = A
_WL1 = 1.5406
_WL2 = 1.54439
_WL3 = 1.39222
_WLRATIO = 0.5
_ANODE = Cu
_V4_INF_CREATOR = XRDWizard
_V4_INF_CREATOR_VERSION = V2.9.0.22
_V4_INF_WIZARD_VERSION = V2.9.0.22
_V4_INF_WIZARD_ADDINS = V2.9.0.22
_V4_INF_WIZARD_DOCTYPE = XRD
_V4_INF_OSUSER = McQueenLab
_V4_INF_USER = Administrator
_V4_INF_SITE = USA
_V4_INF_SAMPLEID = ML_20220721_15_SJD_0_LaB6-4min

; Data for range 1
_DRIVE = COUPLED
_STEPTIME = 11.28
_STEPSIZE = 0.0185756
_STEPMODE = C
_START = 5
_THETA = 2.5
_2THETA = 5
_KHI = 0
_PHI = 0
_X = 0
_Y = 0
_Z = 0
_DETECTOR = 5
; Detector type : Unknown
_DETECTORSLIT = unkn
_AUX1 = 0
_AUX2 = 0
_AUX3 = 0
_TIMESTARTED = 15
_TEMP_RATE = -1
_TEMP_DELAY = -1
_KV = 40
_MA = 40
_RANGE_WL = 1.5406
_3DPLANE = 0
_V4_ADDITIONALDETECTOR = 257
_V4_PSD2THETA = 3.3877
_V4_PSDCHANNEL1 = 0
_V4_PSDAPERTURE = 12.68
_V4_PSDTYPE = 5
_V4_PSDFIXED = 0
_V4_COUNTERS_MASK = 4096
_V4_DRIVES_MASK = 0
_V4_ENCODERS_MASK = 0
_2THETACOUNTS = 1
; 2THETA  PSD
   5.0000        298
   5.1858        255
   5.3715        217
   5.5573        234
   5.7430        212
   5.9288        198
   6.1145        185
   6.3003        209
   6.4860        160
   6.6718        178
   6.8576        173
   7.0433        175
   7.2291        193
   7.4148        184
   7.6006        187
   7.7863        200
   7.9721        200
   8.1579        202
   8.3436        187
   8.5294        184
   8.7151        222
   8.9009        196
   9.0866        192
   9.2724        227
   9.4581        223
   9.6439        254
   9.8297        252
  10.0154        274
  10.2012        249
  10.3869        241
  10.5727        254
  10.7584        238
  10.9442        219
  11.1299        226
  11.3157        210
  11.5015        266
  11.6872        240
  11.8730        231
  12.0587        241
  12.2445        243
  12.4302        216
  12.6160        231
  12.8018        206
  12.9875        235
  13.1733        201
  13.3590        228
  13.5448        190
  13.7305        173
  13.9163        171
  14.1020        170
  14.2878        158
  14.4736        171
  14.6593        182
  14.8451        169
  15.0308        161
  15.2166        179
  15.4023        181
  15.5881        141
  15.7738        158
  15.9596        167
  16.1454        158
  16.3311        170
  16.5169        176
  16.7026        164
  16.8884        166
  17.0741        164
  17.2599        140
  17.4457        176
  17.6314        174
  17.8172        161
  18.0029        176
  18.1887        170
  18.3744        145
  18.5602        168
  18.7459        161
  18.9317        183
  19.1175        167
  19.3032        176
  19.4890        151
  19.6747        179
  19.8605        171
  20.0462        197
  20.2320        172
  20.4177        184
  20.6035        175
  20.7893        175
  20.9750        176
  21.1608        216
  21.3465        520
  21.5323        186
  21.7180        210
  21.9038        192
  22.0896        177
  22.2753        206
  22.4611        192
  22.6468        197
  22.8326        200
  23.0183        183
  23.2041        212
  23.3898        213
  23.5756        216
  23.7614        203
  23.9471        190
  24.1329        206
  24.3186        225
  24.5044        236
  24.6901        198
  24.8759        203
  25.0616        215
  25.2474        191
  25.4332        191
  25.6189        204
  25.8047        205
  25.9904        179
  26.1762        188
  26.3619        188
  26.5477        168
  26.7335        211
  26.9192        177
  27.1050        180
  27.2907        193
  27.4765        206
  27.6622        194
  27.8480        151
  28.0337        175
  28.2195        167
  28.4053        174
  28.5910        161
  28.7768        173
  28.9625        168
  29.1483        182
  29.3340        176
  29.5198        163
  29.7055        191
  29.8913        153
  30.0771        150
  30.2628        150
  30.4486        233
  30.6343        176
  30.8201        159
  31.0058        154
  31.1916        147
  31.3774        137
  31.5631        157
  31.7489        117
  31.9346        120
  32.1204        118
  32.3061        117
  32.4919        161
  32.6776        134
  32.8634        120
  33.0492        121
  33.2349        134
  33.4207        128
  33.6064        115
  33.7922        109
  33.9779        107
  34.1637        125
  34.3494        116
  34.5352        110
  34.7210        136
  34.9067        132
  35.0925        111
  35.2782        103
  35.4640        102
  35.6497        111
  35.8355        111
  36.0213        110
  36.2070        106
  36.3928         89
  36.5785         82
  36.7643         91
  36.9500        100
  37.1358        104
  37.3215         93
  37.5073        123
  37.6931         75
  37.8788         81
  38.0646         85
  38.2503         87
  38.4361         73
  38.6218         73
  38.8076         83
  38.9933        106
  39.1791         77
  39.3649         71
  39.5506         71
  39.7364         73
  39.9221         74
  40.1079         76
  40.2936         76
  40.4794         91
  40.6652         75
  40.8509         72
  41.0367         84
  41.2224         95
  41.4082         78
  41.5939         69
  41.7797         71
  41.9654         84
  42.1512         76
  42.3370         79
  42.5227         72
  42.7085         88
  42.8942         74
  43.0800         82
  43.2657         94
  43.4515         89
  43.6372        103
  43.8230         78
  44.0088         62
  44.1945         71
  44.3803         78
  44.5660         81
  44.7518         78
  44.9375         80
  45.1233         80
  45.3091         78
  45.4948         74
  45.6806         71
  45.8663         73
  46.0521         70
  46.2378         60
  46.4236         74
  46.6093         70
  46.7951         66
  46.9809         55
  47.1666         62
  47.3524         62
  47.5381         64
  47.7239         54
  47.9096         75
  48.0954         64
  48.2811         69
  48.4669         50
  48.6527         81
  48.8384         76
  49.0242         86
  49.2099         87
  49.3957         63
  49.5814         55
  49.7672         68
  49.9530         59
  50.1387         56
  50.3245         55
  50.5102         56
  50.6960         60
  50.8817         64
  51.0675         46
  51.2532         77
  51.4390         59
  51.6248         65
  51.8105         72
  51.9963         65
  52.1820         70
  52.3678         66
  52.5535         74
  52.7393         58
  52.9250         62
  53.1108         73
  53.2966         64
  53.4823         57
  53.6681         38
  53.8538         47
  54.0396         69
  54.2253         54
  54.4111         66
  54.5969         53
  54.7826         56
  54.9684         61
  55.1541         63
  55.3399         49
  55.5256         68
  55.7114         61
  55.8971         64
  56.0829         65
  56.2687         67
  56.4544         58
  56.6402         65
  56.8259         54
  57.0117         46
  57.1974         61
  57.3832         66
  57.5689         58
  57.7547         44
  57.9405         53
  58.1262         43
  58.3120         52
  58.4977         45
  58.6835         66
  58.8692         56
  59.0550         69
  59.2408         60
  59.4265         64
  59.6123         46
  59.7980         49
  59.9838         56
  60.0024         55