File: notebooks/data/xrd_data/ML_20220718_50_SJD_4_LaB6-4min.uxd
; (content of file Y:\Sam\Apurva-07-20-2022\puck4\ML_20220718_50_SJD_4_LaB6-4min.raw)
_FILEVERSION = 3
_SAMPLE = ML_20220718_50_SJD_4_LaB6-4min
_+SAMPLE =
_SITE = USA
_USER = Administrator
_GONIOMETER_CODE = 20
; Goniometer : D8 theta/2theta, stage : Unknown
_ATTACHMENTS_CODE = 0
_GONIOMETER_RADIUS = 200.5
_FIXED_DIVSLIT = 0.6
_FIXED_SAMPLESLIT = 0
_SOLLER_SLITS = 2
_FIXED_DETSLIT = 9.55
_MONOCHROMATOR = 0
; Incident beam monochromator : None
_SOLLER_SLITS_2 = N
_THIN_FILM = N
_BETA_FILTER = Y
_FIXED_ANTISLIT = 5.89
_ANALYZER_CODE = 0
; Received beam analyzer : None
_DATEMEASURED = "26-Jul-2022 14:00:47"
_WL_UNIT = A
_WL1 = 1.5406
_WL2 = 1.54439
_WL3 = 1.39222
_WLRATIO = 0.5
_ANODE = Cu
_V4_INF_CREATOR = XRDWizard
_V4_INF_CREATOR_VERSION = V2.9.0.22
_V4_INF_WIZARD_VERSION = V2.9.0.22
_V4_INF_WIZARD_ADDINS = V2.9.0.22
_V4_INF_WIZARD_DOCTYPE = XRD
_V4_INF_OSUSER = McQueenLab
_V4_INF_USER = Administrator
_V4_INF_SITE = USA
_V4_INF_SAMPLEID = ML_20220718_50_SJD_4_LaB6-4min

; Data for range 1
_DRIVE = COUPLED
_STEPTIME = 11.28
_STEPSIZE = 0.0185756
_STEPMODE = C
_START = 5
_THETA = 2.5
_2THETA = 5
_KHI = 0
_PHI = 0
_X = 0
_Y = 0
_Z = 0
_DETECTOR = 5
; Detector type : Unknown
_DETECTORSLIT = unkn
_AUX1 = 0
_AUX2 = 0
_AUX3 = 0
_TIMESTARTED = 15
_TEMP_RATE = -1
_TEMP_DELAY = -1
_KV = 40
_MA = 40
_RANGE_WL = 1.5406
_3DPLANE = 0
_V4_ADDITIONALDETECTOR = 257
_V4_PSD2THETA = 3.3663
_V4_PSDCHANNEL1 = 0
_V4_PSDAPERTURE = 12.68
_V4_PSDTYPE = 5
_V4_PSDFIXED = 0
_V4_COUNTERS_MASK = 4096
_V4_DRIVES_MASK = 0
_V4_ENCODERS_MASK = 0
_2THETACOUNTS = 1
; 2THETA  PSD
   5.0000        248
   5.1858        226
   5.3715        236
   5.5573        210
   5.7430        215
   5.9288        193
   6.1145        191
   6.3003        182
   6.4860        174
   6.6718        153
   6.8576        173
   7.0433        186
   7.2291        164
   7.4148        172
   7.6006        174
   7.7863        190
   7.9721        203
   8.1579        195
   8.3436        187
   8.5294        195
   8.7151        199
   8.9009        204
   9.0866        222
   9.2724        222
   9.4581        232
   9.6439        239
   9.8297        243
  10.0154        233
  10.2012        213
  10.3869        215
  10.5727        202
  10.7584        251
  10.9442        246
  11.1299        262
  11.3157        225
  11.5015        224
  11.6872        213
  11.8730        231
  12.0587        234
  12.2445        210
  12.4302        232
  12.6160        228
  12.8018        228
  12.9875        212
  13.1733        199
  13.3590        181
  13.5448        191
  13.7305        182
  13.9163        166
  14.1020        167
  14.2878        191
  14.4736        188
  14.6593        179
  14.8451        167
  15.0308        173
  15.2166        169
  15.4023        183
  15.5881        167
  15.7738        176
  15.9596        176
  16.1454        162
  16.3311        153
  16.5169        155
  16.7026        162
  16.8884        162
  17.0741        176
  17.2599        176
  17.4457        159
  17.6314        159
  17.8172        154
  18.0029        181
  18.1887        169
  18.3744        171
  18.5602        185
  18.7459        173
  18.9317        166
  19.1175        175
  19.3032        176
  19.4890        178
  19.6747        195
  19.8605        193
  20.0462        168
  20.2320        184
  20.4177        177
  20.6035        179
  20.7893        181
  20.9750        191
  21.1608        213
  21.3465        474
  21.5323        196
  21.7180        214
  21.9038        185
  22.0896        194
  22.2753        201
  22.4611        196
  22.6468        180
  22.8326        222
  23.0183        183
  23.2041        183
  23.3898        211
  23.5756        210
  23.7614        207
  23.9471        229
  24.1329        200
  24.3186        257
  24.5044        186
  24.6901        170
  24.8759        206
  25.0616        214
  25.2474        190
  25.4332        191
  25.6189        179
  25.8047        216
  25.9904        176
  26.1762        171
  26.3619        180
  26.5477        197
  26.7335        170
  26.9192        180
  27.1050        176
  27.2907        233
  27.4765        169
  27.6622        179
  27.8480        167
  28.0337        171
  28.2195        157
  28.4053        169
  28.5910        186
  28.7768        170
  28.9625        139
  29.1483        150
  29.3340        170
  29.5198        156
  29.7055        172
  29.8913        189
  30.0771        153
  30.2628        168
  30.4486        242
  30.6343        162
  30.8201        154
  31.0058        132
  31.1916        144
  31.3774        129
  31.5631        160
  31.7489        138
  31.9346        129
  32.1204        127
  32.3061        139
  32.4919        151
  32.6776        138
  32.8634        141
  33.0492        121
  33.2349        113
  33.4207        112
  33.6064        111
  33.7922        113
  33.9779        122
  34.1637        111
  34.3494        123
  34.5352        114
  34.7210        132
  34.9067        126
  35.0925        104
  35.2782        105
  35.4640        121
  35.6497         84
  35.8355        102
  36.0213        105
  36.2070         93
  36.3928        105
  36.5785         94
  36.7643         93
  36.9500         89
  37.1358         80
  37.3215         83
  37.5073        109
  37.6931        106
  37.8788         87
  38.0646         78
  38.2503         86
  38.4361         83
  38.6218         87
  38.8076         83
  38.9933         90
  39.1791         78
  39.3649         84
  39.5506         89
  39.7364         69
  39.9221         87
  40.1079         80
  40.2936         72
  40.4794         89
  40.6652         90
  40.8509         76
  41.0367         70
  41.2224         81
  41.4082         80
  41.5939         84
  41.7797         69
  41.9654         74
  42.1512         69
  42.3370         81
  42.5227         74
  42.7085         81
  42.8942         63
  43.0800         76
  43.2657         97
  43.4515         81
  43.6372         98
  43.8230         61
  44.0088         80
  44.1945         66
  44.3803         67
  44.5660         73
  44.7518         72
  44.9375         63
  45.1233         74
  45.3091         80
  45.4948         66
  45.6806         75
  45.8663         75
  46.0521         73
  46.2378         80
  46.4236         73
  46.6093         68
  46.7951         49
  46.9809         72
  47.1666         82
  47.3524         77
  47.5381         59
  47.7239         61
  47.9096         66
  48.0954         57
  48.2811         73
  48.4669         56
  48.6527         60
  48.8384         57
  49.0242         64
  49.2099         60
  49.3957         59
  49.5814         64
  49.7672         51
  49.9530         56
  50.1387         63
  50.3245         87
  50.5102         71
  50.6960         52
  50.8817         57
  51.0675         61
  51.2532         61
  51.4390         78
  51.6248         63
  51.8105         64
  51.9963         76
  52.1820         60
  52.3678         54
  52.5535         56
  52.7393         52
  52.9250         66
  53.1108         57
  53.2966         63
  53.4823         44
  53.6681         51
  53.8538         56
  54.0396         65
  54.2253         50
  54.4111         69
  54.5969         46
  54.7826         55
  54.9684         56
  55.1541         52
  55.3399         48
  55.5256         53
  55.7114         59
  55.8971         49
  56.0829         67
  56.2687         63
  56.4544         65
  56.6402         67
  56.8259         59
  57.0117         60
  57.1974         68
  57.3832         46
  57.5689         47
  57.7547         54
  57.9405         73
  58.1262         54
  58.3120         54
  58.4977         61
  58.6835         43
  58.8692         58
  59.0550         59
  59.2408         47
  59.4265         63
  59.6123         68
  59.7980         58
  59.9838         44
  60.0024         50