File: notebooks/data/xrd_data/ML_20220720_4_SJD_4_LaB6-2min.csv
;,2THETA,
5.0000,131
5.1858,119
5.3715,141
5.5573,100
5.7430,100
5.9288,97
6.1145,94
6.3003,68
6.4860,78
6.6718,80
6.8576,85
7.0433,102
7.2291,80
7.4148,65
7.6006,82
7.7863,102
7.9721,95
8.1579,91
8.3436,96
8.5294,110
8.7151,100
8.9009,87
9.0866,100
9.2724,112
9.4581,113
9.6439,88
9.8297,119
10.0154,131
10.2012,105
10.3869,141
10.5727,117
10.7584,114
10.9442,108
11.1299,113
11.3157,122
11.5015,101
11.6872,116
11.8730,106
12.0587,107
12.2445,114
12.4302,108
12.6160,125
12.8018,114
12.9875,98
13.1733,97
13.3590,110
13.5448,94
13.7305,89
13.9163,93
14.1020,84
14.2878,83
14.4736,91
14.6593,74
14.8451,81
15.0308,74
15.2166,86
15.4023,76
15.5881,93
15.7738,88
15.9596,71
16.1454,66
16.3311,81
16.5169,70
16.7026,86
16.8884,89
17.0741,86
17.2599,81
17.4457,78
17.6314,82
17.8172,62
18.0029,90
18.1887,91
18.3744,86
18.5602,61
18.7459,82
18.9317,77
19.1175,87
19.3032,79
19.4890,80
19.6747,83
19.8605,80
20.0462,84
20.2320,111
20.4177,87
20.6035,90
20.7893,92
20.9750,93
21.1608,133
21.3465,243
21.5323,80
21.7180,86
21.9038,104
22.0896,91
22.2753,91
22.4611,84
22.6468,109
22.8326,95
23.0183,93
23.2041,94
23.3898,82
23.5756,113
23.7614,102
23.9471,96
24.1329,107
24.3186,111
24.5044,96
24.6901,89
24.8759,112
25.0616,96
25.2474,88
25.4332,86
25.6189,96
25.8047,100
25.9904,92
26.1762,92
26.3619,84
26.5477,90
26.7335,112
26.9192,87
27.1050,107
27.2907,98
27.4765,94
27.6622,87
27.8480,95
28.0337,69
28.2195,96
28.4053,100
28.5910,78
28.7768,91
28.9625,75
29.1483,66
29.3340,88
29.5198,78
29.7055,60
29.8913,72
30.0771,63
30.2628,79
30.4486,118
30.6343,81
30.8201,83
31.0058,91
31.1916,73
31.3774,71
31.5631,67
31.7489,63
31.9346,67
32.1204,72
32.3061,60
32.4919,74
32.6776,45
32.8634,60
33.0492,66
33.2349,57
33.4207,50
33.6064,56
33.7922,56
33.9779,53
34.1637,60
34.3494,51
34.5352,48
34.7210,59
34.9067,58
35.0925,65
35.2782,48
35.4640,53
35.6497,57
35.8355,45
36.0213,46
36.2070,47
36.3928,42
36.5785,37
36.7643,28
36.9500,41
37.1358,39
37.3215,41
37.5073,57
37.6931,49
37.8788,48
38.0646,44
38.2503,32
38.4361,34
38.6218,43
38.8076,40
38.9933,47
39.1791,51
39.3649,33
39.5506,42
39.7364,35
39.9221,28
40.1079,37
40.2936,31
40.4794,46
40.6652,37
40.8509,30
41.0367,40
41.2224,40
41.4082,43
41.5939,27
41.7797,37
41.9654,35
42.1512,35
42.3370,45
42.5227,35
42.7085,36
42.8942,36
43.0800,43
43.2657,50
43.4515,45
43.6372,37
43.8230,33
44.0088,42
44.1945,45
44.3803,43
44.5660,40
44.7518,31
44.9375,33
45.1233,41
45.3091,36
45.4948,39
45.6806,26
45.8663,39
46.0521,34
46.2378,27
46.4236,38
46.6093,43
46.7951,35
46.9809,37
47.1666,38
47.3524,35
47.5381,32
47.7239,26
47.9096,34
48.0954,33
48.2811,26
48.4669,30
48.6527,34
48.8384,37
49.0242,37
49.2099,31
49.3957,28
49.5814,23
49.7672,27
49.9530,31
50.1387,29
50.3245,38
50.5102,25
50.6960,20
50.8817,27
51.0675,32
51.2532,21
51.4390,49
51.6248,38
51.8105,38
51.9963,45
52.1820,21
52.3678,31
52.5535,41
52.7393,29
52.9250,39
53.1108,29
53.2966,23
53.4823,40
53.6681,31
53.8538,38
54.0396,28
54.2253,20
54.4111,20
54.5969,27
54.7826,31
54.9684,34
55.1541,30
55.3399,34
55.5256,30
55.7114,28
55.8971,26
56.0829,33
56.2687,28
56.4544,32
56.6402,29
56.8259,26
57.0117,32
57.1974,30
57.3832,35
57.5689,27
57.7547,31
57.9405,33
58.1262,27
58.3120,30
58.4977,18
58.6835,17
58.8692,20
59.0550,31
59.2408,29
59.4265,30
59.6123,19
59.7980,26
59.9838,24
60.0024,29