File: notebooks/data/xrd_data/ML_20220721_34_SJD_4_LaB6-4min.uxd
; (content of file Y:\Sam\Apurva-07-20-2022\puck1\ML_20220721_34_SJD_0_LaB6-4min.raw)
_FILEVERSION = 3
_SAMPLE = ML_20220721_34_SJD_0_LaB6-4min
_+SAMPLE =
_SITE = USA
_USER = Administrator
_GONIOMETER_CODE = 20
; Goniometer : D8 theta/2theta, stage : Unknown
_ATTACHMENTS_CODE = 0
_GONIOMETER_RADIUS = 200.5
_FIXED_DIVSLIT = 0.6
_FIXED_SAMPLESLIT = 0
_SOLLER_SLITS = 2
_FIXED_DETSLIT = 9.55
_MONOCHROMATOR = 0
; Incident beam monochromator : None
_SOLLER_SLITS_2 = N
_THIN_FILM = N
_BETA_FILTER = Y
_FIXED_ANTISLIT = 5.89
_ANALYZER_CODE = 0
; Received beam analyzer : None
_DATEMEASURED = "25-Jul-2022 16:24:55"
_WL_UNIT = A
_WL1 = 1.5406
_WL2 = 1.54439
_WL3 = 1.39222
_WLRATIO = 0.5
_ANODE = Cu
_V4_INF_CREATOR = XRDWizard
_V4_INF_CREATOR_VERSION = V2.9.0.22
_V4_INF_WIZARD_VERSION = V2.9.0.22
_V4_INF_WIZARD_ADDINS = V2.9.0.22
_V4_INF_WIZARD_DOCTYPE = XRD
_V4_INF_OSUSER = McQueenLab
_V4_INF_USER = Administrator
_V4_INF_SITE = USA
_V4_INF_SAMPLEID = ML_20220721_34_SJD_0_LaB6-4min

; Data for range 1
_DRIVE = COUPLED
_STEPTIME = 11.28
_STEPSIZE = 0.0185756
_STEPMODE = C
_START = 5
_THETA = 2.5
_2THETA = 5
_KHI = 0
_PHI = 0
_X = 0
_Y = 0
_Z = 0
_DETECTOR = 5
; Detector type : Unknown
_DETECTORSLIT = unkn
_AUX1 = 0
_AUX2 = 0
_AUX3 = 0
_TIMESTARTED = 15
_TEMP_RATE = -1
_TEMP_DELAY = -1
_KV = 40
_MA = 40
_RANGE_WL = 1.5406
_3DPLANE = 0
_V4_ADDITIONALDETECTOR = 257
_V4_PSD2THETA = 3.3675
_V4_PSDCHANNEL1 = 0
_V4_PSDAPERTURE = 12.68
_V4_PSDTYPE = 5
_V4_PSDFIXED = 0
_V4_COUNTERS_MASK = 4096
_V4_DRIVES_MASK = 0
_V4_ENCODERS_MASK = 0
_2THETACOUNTS = 1
; 2THETA  PSD
   5.0000        263
   5.1858        252
   5.3715        256
   5.5573        230
   5.7430        208
   5.9288        215
   6.1145        194
   6.3003        172
   6.4860        180
   6.6718        167
   6.8576        174
   7.0433        156
   7.2291        154
   7.4148        170
   7.6006        168
   7.7863        192
   7.9721        201
   8.1579        197
   8.3436        220
   8.5294        221
   8.7151        241
   8.9009        206
   9.0866        214
   9.2724        211
   9.4581        237
   9.6439        231
   9.8297        213
  10.0154        225
  10.2012        261
  10.3869        218
  10.5727        201
  10.7584        241
  10.9442        212
  11.1299        241
  11.3157        215
  11.5015        232
  11.6872        234
  11.8730        208
  12.0587        221
  12.2445        200
  12.4302        222
  12.6160        219
  12.8018        211
  12.9875        222
  13.1733        207
  13.3590        184
  13.5448        212
  13.7305        211
  13.9163        199
  14.1020        185
  14.2878        178
  14.4736        165
  14.6593        176
  14.8451        169
  15.0308        173
  15.2166        161
  15.4023        195
  15.5881        148
  15.7738        160
  15.9596        154
  16.1454        130
  16.3311        156
  16.5169        161
  16.7026        170
  16.8884        155
  17.0741        177
  17.2599        169
  17.4457        150
  17.6314        179
  17.8172        154
  18.0029        185
  18.1887        164
  18.3744        147
  18.5602        161
  18.7459        156
  18.9317        177
  19.1175        173
  19.3032        162
  19.4890        191
  19.6747        204
  19.8605        194
  20.0462        171
  20.2320        191
  20.4177        186
  20.6035        204
  20.7893        204
  20.9750        198
  21.1608        199
  21.3465        554
  21.5323        211
  21.7180        184
  21.9038        209
  22.0896        188
  22.2753        207
  22.4611        191
  22.6468        179
  22.8326        214
  23.0183        200
  23.2041        188
  23.3898        186
  23.5756        201
  23.7614        220
  23.9471        194
  24.1329        205
  24.3186        218
  24.5044        210
  24.6901        207
  24.8759        216
  25.0616        191
  25.2474        191
  25.4332        203
  25.6189        218
  25.8047        185
  25.9904        214
  26.1762        170
  26.3619        161
  26.5477        184
  26.7335        193
  26.9192        192
  27.1050        184
  27.2907        205
  27.4765        195
  27.6622        158
  27.8480        171
  28.0337        197
  28.2195        176
  28.4053        177
  28.5910        164
  28.7768        165
  28.9625        160
  29.1483        162
  29.3340        147
  29.5198        169
  29.7055        155
  29.8913        165
  30.0771        156
  30.2628        166
  30.4486        258
  30.6343        139
  30.8201        142
  31.0058        150
  31.1916        139
  31.3774        141
  31.5631        154
  31.7489        126
  31.9346        137
  32.1204        132
  32.3061        129
  32.4919        190
  32.6776        130
  32.8634        134
  33.0492        105
  33.2349        125
  33.4207        121
  33.6064        116
  33.7922        121
  33.9779        106
  34.1637         94
  34.3494        116
  34.5352        128
  34.7210        147
  34.9067        113
  35.0925        124
  35.2782         95
  35.4640        108
  35.6497         86
  35.8355         96
  36.0213        102
  36.2070         84
  36.3928        116
  36.5785        100
  36.7643         89
  36.9500         95
  37.1358         99
  37.3215        113
  37.5073        122
  37.6931         96
  37.8788         79
  38.0646         82
  38.2503         82
  38.4361         86
  38.6218         80
  38.8076         93
  38.9933         79
  39.1791         98
  39.3649         86
  39.5506         96
  39.7364         63
  39.9221         84
  40.1079         65
  40.2936         74
  40.4794         88
  40.6652         70
  40.8509         79
  41.0367         78
  41.2224         82
  41.4082         73
  41.5939         70
  41.7797         70
  41.9654         61
  42.1512         61
  42.3370         78
  42.5227         89
  42.7085         72
  42.8942         93
  43.0800         68
  43.2657         89
  43.4515         87
  43.6372        121
  43.8230         75
  44.0088         74
  44.1945         76
  44.3803         65
  44.5660         67
  44.7518         75
  44.9375         81
  45.1233         57
  45.3091         81
  45.4948         76
  45.6806         70
  45.8663         81
  46.0521         79
  46.2378         53
  46.4236         54
  46.6093         71
  46.7951         64
  46.9809         59
  47.1666         52
  47.3524         51
  47.5381         70
  47.7239         54
  47.9096         70
  48.0954         64
  48.2811         57
  48.4669         64
  48.6527         48
  48.8384         78
  49.0242         88
  49.2099         54
  49.3957         60
  49.5814         63
  49.7672         62
  49.9530         65
  50.1387         70
  50.3245         69
  50.5102         64
  50.6960         64
  50.8817         51
  51.0675         63
  51.2532         51
  51.4390         66
  51.6248         65
  51.8105         72
  51.9963         62
  52.1820         63
  52.3678         64
  52.5535         64
  52.7393         57
  52.9250         60
  53.1108         67
  53.2966         49
  53.4823         49
  53.6681         58
  53.8538         55
  54.0396         69
  54.2253         70
  54.4111         58
  54.5969         63
  54.7826         60
  54.9684         67
  55.1541         57
  55.3399         78
  55.5256         51
  55.7114         60
  55.8971         52
  56.0829         59
  56.2687         70
  56.4544         78
  56.6402         54
  56.8259         58
  57.0117         50
  57.1974         56
  57.3832         60
  57.5689         53
  57.7547         51
  57.9405         79
  58.1262         55
  58.3120         58
  58.4977         55
  58.6835         47
  58.8692         54
  59.0550         56
  59.2408         57
  59.4265         54
  59.6123         50
  59.7980         60
  59.9838         61
  60.0024         47