File: notebooks/data/xrd_data/ML_20220718_26_SJD_4_LaB6-2min.csv
;,2THETA,
5.0000,137
5.1858,119
5.3715,110
5.5573,96
5.7430,91
5.9288,110
6.1145,93
6.3003,86
6.4860,109
6.6718,88
6.8576,86
7.0433,58
7.2291,75
7.4148,83
7.6006,81
7.7863,107
7.9721,99
8.1579,91
8.3436,99
8.5294,101
8.7151,115
8.9009,91
9.0866,112
9.2724,121
9.4581,94
9.6439,105
9.8297,131
10.0154,140
10.2012,118
10.3869,114
10.5727,136
10.7584,105
10.9442,103
11.1299,132
11.3157,116
11.5015,102
11.6872,109
11.8730,91
12.0587,108
12.2445,103
12.4302,126
12.6160,98
12.8018,99
12.9875,115
13.1733,99
13.3590,111
13.5448,87
13.7305,102
13.9163,101
14.1020,86
14.2878,89
14.4736,92
14.6593,90
14.8451,90
15.0308,90
15.2166,93
15.4023,86
15.5881,73
15.7738,83
15.9596,86
16.1454,69
16.3311,88
16.5169,76
16.7026,92
16.8884,88
17.0741,60
17.2599,98
17.4457,77
17.6314,75
17.8172,79
18.0029,77
18.1887,93
18.3744,80
18.5602,71
18.7459,88
18.9317,86
19.1175,75
19.3032,88
19.4890,77
19.6747,85
19.8605,83
20.0462,79
20.2320,91
20.4177,87
20.6035,107
20.7893,89
20.9750,104
21.1608,112
21.3465,259
21.5323,107
21.7180,102
21.9038,96
22.0896,88
22.2753,115
22.4611,99
22.6468,99
22.8326,70
23.0183,95
23.2041,90
23.3898,96
23.5756,85
23.7614,107
23.9471,101
24.1329,106
24.3186,93
24.5044,106
24.6901,84
24.8759,89
25.0616,109
25.2474,108
25.4332,96
25.6189,87
25.8047,85
25.9904,111
26.1762,93
26.3619,107
26.5477,81
26.7335,77
26.9192,108
27.1050,86
27.2907,114
27.4765,89
27.6622,86
27.8480,97
28.0337,74
28.2195,78
28.4053,81
28.5910,66
28.7768,97
28.9625,104
29.1483,66
29.3340,70
29.5198,80
29.7055,69
29.8913,71
30.0771,83
30.2628,78
30.4486,115
30.6343,82
30.8201,63
31.0058,72
31.1916,73
31.3774,68
31.5631,71
31.7489,73
31.9346,74
32.1204,60
32.3061,75
32.4919,74
32.6776,76
32.8634,83
33.0492,60
33.2349,48
33.4207,67
33.6064,48
33.7922,49
33.9779,65
34.1637,50
34.3494,44
34.5352,61
34.7210,82
34.9067,74
35.0925,49
35.2782,52
35.4640,51
35.6497,43
35.8355,44
36.0213,58
36.2070,58
36.3928,36
36.5785,61
36.7643,44
36.9500,46
37.1358,63
37.3215,39
37.5073,49
37.6931,51
37.8788,44
38.0646,42
38.2503,41
38.4361,36
38.6218,34
38.8076,37
38.9933,41
39.1791,35
39.3649,35
39.5506,43
39.7364,37
39.9221,47
40.1079,38
40.2936,39
40.4794,41
40.6652,50
40.8509,36
41.0367,38
41.2224,38
41.4082,51
41.5939,39
41.7797,43
41.9654,34
42.1512,35
42.3370,28
42.5227,37
42.7085,38
42.8942,34
43.0800,47
43.2657,49
43.4515,29
43.6372,48
43.8230,34
44.0088,33
44.1945,41
44.3803,33
44.5660,34
44.7518,42
44.9375,34
45.1233,32
45.3091,42
45.4948,26
45.6806,31
45.8663,30
46.0521,33
46.2378,42
46.4236,31
46.6093,31
46.7951,30
46.9809,35
47.1666,31
47.3524,29
47.5381,25
47.7239,21
47.9096,31
48.0954,32
48.2811,29
48.4669,31
48.6527,33
48.8384,37
49.0242,41
49.2099,29
49.3957,36
49.5814,29
49.7672,23
49.9530,28
50.1387,23
50.3245,35
50.5102,29
50.6960,30
50.8817,24
51.0675,22
51.2532,35
51.4390,30
51.6248,32
51.8105,28
51.9963,39
52.1820,32
52.3678,30
52.5535,32
52.7393,32
52.9250,23
53.1108,24
53.2966,35
53.4823,20
53.6681,21
53.8538,27
54.0396,39
54.2253,30
54.4111,29
54.5969,24
54.7826,27
54.9684,22
55.1541,20
55.3399,28
55.5256,25
55.7114,33
55.8971,23
56.0829,23
56.2687,19
56.4544,26
56.6402,36
56.8259,30
57.0117,40
57.1974,34
57.3832,25
57.5689,25
57.7547,42
57.9405,29
58.1262,23
58.3120,17
58.4977,23
58.6835,28
58.8692,24
59.0550,30
59.2408,21
59.4265,30
59.6123,32
59.7980,28
59.9838,18
60.0024,28