File: notebooks/data/xrd_data/ML_20220720_0_SJD_4_LaB6-4min.csv
;,2THETA,
5.0000,262
5.1858,269
5.3715,234
5.5573,222
5.7430,199
5.9288,184
6.1145,209
6.3003,170
6.4860,212
6.6718,172
6.8576,164
7.0433,161
7.2291,189
7.4148,164
7.6006,163
7.7863,160
7.9721,210
8.1579,188
8.3436,191
8.5294,199
8.7151,206
8.9009,191
9.0866,248
9.2724,236
9.4581,227
9.6439,197
9.8297,225
10.0154,216
10.2012,237
10.3869,219
10.5727,227
10.7584,243
10.9442,221
11.1299,244
11.3157,241
11.5015,205
11.6872,218
11.8730,226
12.0587,205
12.2445,197
12.4302,209
12.6160,220
12.8018,180
12.9875,188
13.1733,218
13.3590,181
13.5448,182
13.7305,209
13.9163,196
14.1020,184
14.2878,172
14.4736,164
14.6593,198
14.8451,170
15.0308,173
15.2166,171
15.4023,159
15.5881,163
15.7738,168
15.9596,183
16.1454,156
16.3311,145
16.5169,162
16.7026,156
16.8884,150
17.0741,166
17.2599,145
17.4457,142
17.6314,151
17.8172,166
18.0029,155
18.1887,151
18.3744,168
18.5602,175
18.7459,144
18.9317,169
19.1175,167
19.3032,180
19.4890,171
19.6747,152
19.8605,167
20.0462,163
20.2320,181
20.4177,185
20.6035,191
20.7893,206
20.9750,200
21.1608,248
21.3465,530
21.5323,210
21.7180,183
21.9038,173
22.0896,181
22.2753,198
22.4611,187
22.6468,169
22.8326,201
23.0183,198
23.2041,169
23.3898,212
23.5756,206
23.7614,215
23.9471,206
24.1329,205
24.3186,236
24.5044,210
24.6901,186
24.8759,216
25.0616,186
25.2474,204
25.4332,205
25.6189,189
25.8047,189
25.9904,175
26.1762,182
26.3619,207
26.5477,189
26.7335,215
26.9192,194
27.1050,183
27.2907,218
27.4765,157
27.6622,172
27.8480,164
28.0337,182
28.2195,175
28.4053,167
28.5910,186
28.7768,157
28.9625,150
29.1483,185
29.3340,149
29.5198,156
29.7055,155
29.8913,178
30.0771,182
30.2628,180
30.4486,244
30.6343,141
30.8201,138
31.0058,148
31.1916,119
31.3774,167
31.5631,116
31.7489,126
31.9346,133
32.1204,125
32.3061,130
32.4919,147
32.6776,149
32.8634,133
33.0492,117
33.2349,114
33.4207,124
33.6064,123
33.7922,130
33.9779,120
34.1637,98
34.3494,116
34.5352,130
34.7210,149
34.9067,115
35.0925,118
35.2782,102
35.4640,107
35.6497,105
35.8355,105
36.0213,111
36.2070,95
36.3928,90
36.5785,100
36.7643,98
36.9500,102
37.1358,98
37.3215,89
37.5073,120
37.6931,109
37.8788,81
38.0646,91
38.2503,79
38.4361,89
38.6218,84
38.8076,69
38.9933,78
39.1791,79
39.3649,71
39.5506,69
39.7364,74
39.9221,66
40.1079,76
40.2936,80
40.4794,66
40.6652,77
40.8509,75
41.0367,92
41.2224,66
41.4082,83
41.5939,70
41.7797,72
41.9654,96
42.1512,59
42.3370,52
42.5227,79
42.7085,86
42.8942,66
43.0800,73
43.2657,93
43.4515,94
43.6372,90
43.8230,73
44.0088,68
44.1945,65
44.3803,72
44.5660,83
44.7518,81
44.9375,90
45.1233,74
45.3091,62
45.4948,72
45.6806,50
45.8663,61
46.0521,79
46.2378,72
46.4236,68
46.6093,75
46.7951,66
46.9809,65
47.1666,71
47.3524,74
47.5381,60
47.7239,58
47.9096,60
48.0954,57
48.2811,78
48.4669,58
48.6527,60
48.8384,60
49.0242,84
49.2099,76
49.3957,74
49.5814,69
49.7672,71
49.9530,59
50.1387,75
50.3245,62
50.5102,57
50.6960,57
50.8817,51
51.0675,64
51.2532,65
51.4390,63
51.6248,55
51.8105,68
51.9963,72
52.1820,60
52.3678,66
52.5535,61
52.7393,61
52.9250,37
53.1108,68
53.2966,69
53.4823,65
53.6681,62
53.8538,53
54.0396,69
54.2253,62
54.4111,57
54.5969,56
54.7826,55
54.9684,56
55.1541,49
55.3399,66
55.5256,57
55.7114,67
55.8971,58
56.0829,62
56.2687,56
56.4544,50
56.6402,64
56.8259,64
57.0117,55
57.1974,60
57.3832,63
57.5689,53
57.7547,66
57.9405,58
58.1262,46
58.3120,60
58.4977,41
58.6835,59
58.8692,58
59.0550,63
59.2408,68
59.4265,73
59.6123,54
59.7980,54
59.9838,58
60.0024,60