File: notebooks/data/xrd_data/ML_20220720_34_SJD_4_LaB6-1min.csv
;,2THETA,
5.0000,119
5.1858,105
5.3715,79
5.5573,71
5.7430,80
5.9288,74
6.1145,63
6.3003,60
6.4860,59
6.6718,58
6.8576,62
7.0433,63
7.2291,49
7.4148,48
7.6006,62
7.7863,66
7.9721,71
8.1579,74
8.3436,77
8.5294,69
8.7151,71
8.9009,63
9.0866,72
9.2724,84
9.4581,83
9.6439,70
9.8297,82
10.0154,91
10.2012,96
10.3869,99
10.5727,96
10.7584,80
10.9442,87
11.1299,88
11.3157,86
11.5015,98
11.6872,102
11.8730,87
12.0587,90
12.2445,76
12.4302,84
12.6160,96
12.8018,75
12.9875,83
13.1733,64
13.3590,82
13.5448,77
13.7305,64
13.9163,75
14.1020,66
14.2878,67
14.4736,52
14.6593,63
14.8451,59
15.0308,67
15.2166,59
15.4023,59
15.5881,60
15.7738,64
15.9596,49
16.1454,48
16.3311,70
16.5169,63
16.7026,72
16.8884,41
17.0741,53
17.2599,65
17.4457,59
17.6314,63
17.8172,56
18.0029,63
18.1887,56
18.3744,73
18.5602,66
18.7459,58
18.9317,57
19.1175,48
19.3032,57
19.4890,62
19.6747,70
19.8605,55
20.0462,57
20.2320,75
20.4177,79
20.6035,73
20.7893,79
20.9750,71
21.1608,80
21.3465,191
21.5323,77
21.7180,79
21.9038,54
22.0896,74
22.2753,69
22.4611,85
22.6468,67
22.8326,85
23.0183,95
23.2041,91
23.3898,85
23.5756,65
23.7614,80
23.9471,74
24.1329,82
24.3186,79
24.5044,84
24.6901,53
24.8759,75
25.0616,91
25.2474,53
25.4332,77
25.6189,71
25.8047,70
25.9904,62
26.1762,74
26.3619,65
26.5477,86
26.7335,76
26.9192,56
27.1050,60
27.2907,67
27.4765,67
27.6622,62
27.8480,78
28.0337,67
28.2195,59
28.4053,72
28.5910,62
28.7768,67
28.9625,53
29.1483,64
29.3340,66
29.5198,54
29.7055,61
29.8913,56
30.0771,58
30.2628,64
30.4486,98
30.6343,49
30.8201,52
31.0058,51
31.1916,66
31.3774,31
31.5631,47
31.7489,40
31.9346,45
32.1204,38
32.3061,44
32.4919,55
32.6776,54
32.8634,47
33.0492,47
33.2349,46
33.4207,49
33.6064,41
33.7922,37
33.9779,41
34.1637,39
34.3494,45
34.5352,48
34.7210,41
34.9067,51
35.0925,43
35.2782,40
35.4640,32
35.6497,35
35.8355,43
36.0213,40
36.2070,24
36.3928,44
36.5785,29
36.7643,39
36.9500,29
37.1358,23
37.3215,35
37.5073,41
37.6931,43
37.8788,33
38.0646,23
38.2503,33
38.4361,33
38.6218,30
38.8076,28
38.9933,20
39.1791,35
39.3649,33
39.5506,31
39.7364,32
39.9221,31
40.1079,30
40.2936,31
40.4794,18
40.6652,25
40.8509,25
41.0367,27
41.2224,22
41.4082,28
41.5939,28
41.7797,31
41.9654,25
42.1512,31
42.3370,27
42.5227,19
42.7085,32
42.8942,33
43.0800,28
43.2657,38
43.4515,39
43.6372,29
43.8230,23
44.0088,25
44.1945,34
44.3803,24
44.5660,23
44.7518,32
44.9375,28
45.1233,26
45.3091,25
45.4948,27
45.6806,27
45.8663,35
46.0521,29
46.2378,22
46.4236,24
46.6093,28
46.7951,22
46.9809,22
47.1666,27
47.3524,21
47.5381,22
47.7239,23
47.9096,23
48.0954,28
48.2811,27
48.4669,21
48.6527,15
48.8384,28
49.0242,33
49.2099,27
49.3957,22
49.5814,26
49.7672,16
49.9530,22
50.1387,26
50.3245,29
50.5102,26
50.6960,17
50.8817,26
51.0675,20
51.2532,18
51.4390,24
51.6248,21
51.8105,26
51.9963,26
52.1820,22
52.3678,18
52.5535,31
52.7393,20
52.9250,24
53.1108,28
53.2966,23
53.4823,17
53.6681,16
53.8538,16
54.0396,26
54.2253,19
54.4111,20
54.5969,20
54.7826,30
54.9684,24
55.1541,24
55.3399,27
55.5256,20
55.7114,26
55.8971,27
56.0829,11
56.2687,39
56.4544,26
56.6402,23
56.8259,13
57.0117,27
57.1974,21
57.3832,20
57.5689,25
57.7547,16
57.9405,29
58.1262,20
58.3120,17
58.4977,15
58.6835,16
58.8692,16
59.0550,23
59.2408,13
59.4265,19
59.6123,9
59.7980,18
59.9838,25
60.0024,15