File: notebooks/data/xrd_data/ML_20220718_58_SJD_4_LaB6-2min.uxd
; (content of file Y:\Sam\Apurva-07-20-2022\puck4\ML_20220718_58_SJD_4_LaB6-2min.raw)
_FILEVERSION = 3
_SAMPLE = ML_20220718_58_SJD_4_LaB6-2min
_+SAMPLE =
_SITE = USA
_USER = Administrator
_GONIOMETER_CODE = 20
; Goniometer : D8 theta/2theta, stage : Unknown
_ATTACHMENTS_CODE = 0
_GONIOMETER_RADIUS = 200.5
_FIXED_DIVSLIT = 0.6
_FIXED_SAMPLESLIT = 0
_SOLLER_SLITS = 2
_FIXED_DETSLIT = 9.55
_MONOCHROMATOR = 0
; Incident beam monochromator : None
_SOLLER_SLITS_2 = N
_THIN_FILM = N
_BETA_FILTER = Y
_FIXED_ANTISLIT = 5.89
_ANALYZER_CODE = 0
; Received beam analyzer : None
_DATEMEASURED = "26-Jul-2022 12:46:46"
_WL_UNIT = A
_WL1 = 1.5406
_WL2 = 1.54439
_WL3 = 1.39222
_WLRATIO = 0.5
_ANODE = Cu
_V4_INF_CREATOR = XRDWizard
_V4_INF_CREATOR_VERSION = V2.9.0.22
_V4_INF_WIZARD_VERSION = V2.9.0.22
_V4_INF_WIZARD_ADDINS = V2.9.0.22
_V4_INF_WIZARD_DOCTYPE = XRD
_V4_INF_OSUSER = McQueenLab
_V4_INF_USER = Administrator
_V4_INF_SITE = USA
_V4_INF_SAMPLEID = ML_20220718_58_SJD_4_LaB6-2min

; Data for range 1
_DRIVE = COUPLED
_STEPTIME = 5.64
_STEPSIZE = 0.0185756
_STEPMODE = C
_START = 5
_THETA = 2.5
_2THETA = 5
_KHI = 0
_PHI = 0
_X = 0
_Y = 0
_Z = 0
_DETECTOR = 5
; Detector type : Unknown
_DETECTORSLIT = unkn
_AUX1 = 0
_AUX2 = 0
_AUX3 = 0
_TIMESTARTED = 14
_TEMP_RATE = -1
_TEMP_DELAY = -1
_KV = 40
_MA = 40
_RANGE_WL = 1.5406
_3DPLANE = 0
_V4_ADDITIONALDETECTOR = 257
_V4_PSD2THETA = 3.4183
_V4_PSDCHANNEL1 = 0
_V4_PSDAPERTURE = 12.68
_V4_PSDTYPE = 5
_V4_PSDFIXED = 0
_V4_COUNTERS_MASK = 4096
_V4_DRIVES_MASK = 0
_V4_ENCODERS_MASK = 0
_2THETACOUNTS = 1
; 2THETA  PSD
   5.0000        114
   5.1858        126
   5.3715        118
   5.5573        111
   5.7430        104
   5.9288         86
   6.1145         90
   6.3003         95
   6.4860         82
   6.6718         83
   6.8576         76
   7.0433         85
   7.2291         77
   7.4148         86
   7.6006         77
   7.7863         87
   7.9721         78
   8.1579         91
   8.3436         94
   8.5294         75
   8.7151         97
   8.9009        100
   9.0866        107
   9.2724        104
   9.4581        119
   9.6439        101
   9.8297        118
  10.0154        123
  10.2012        108
  10.3869        126
  10.5727        126
  10.7584        118
  10.9442        123
  11.1299        113
  11.3157        118
  11.5015        111
  11.6872        103
  11.8730        113
  12.0587        110
  12.2445         85
  12.4302        107
  12.6160        116
  12.8018         95
  12.9875        118
  13.1733        113
  13.3590         70
  13.5448         87
  13.7305         84
  13.9163         94
  14.1020         89
  14.2878         78
  14.4736         91
  14.6593        100
  14.8451         64
  15.0308         81
  15.2166         82
  15.4023         66
  15.5881         80
  15.7738         66
  15.9596         76
  16.1454         62
  16.3311        108
  16.5169         81
  16.7026         84
  16.8884         80
  17.0741         78
  17.2599         87
  17.4457         73
  17.6314         85
  17.8172         93
  18.0029         80
  18.1887         91
  18.3744         92
  18.5602         74
  18.7459         85
  18.9317        100
  19.1175         73
  19.3032         83
  19.4890         75
  19.6747         74
  19.8605         69
  20.0462         84
  20.2320         89
  20.4177         82
  20.6035         74
  20.7893        102
  20.9750        105
  21.1608        110
  21.3465        241
  21.5323         99
  21.7180         97
  21.9038         89
  22.0896         94
  22.2753         89
  22.4611         93
  22.6468         89
  22.8326         79
  23.0183        104
  23.2041         92
  23.3898         91
  23.5756         85
  23.7614         76
  23.9471        108
  24.1329         99
  24.3186        110
  24.5044         82
  24.6901         94
  24.8759         99
  25.0616         82
  25.2474         79
  25.4332         99
  25.6189        117
  25.8047         99
  25.9904         83
  26.1762         83
  26.3619         89
  26.5477         99
  26.7335         91
  26.9192        101
  27.1050         98
  27.2907        109
  27.4765         95
  27.6622         82
  27.8480         76
  28.0337         81
  28.2195         97
  28.4053         95
  28.5910         74
  28.7768         81
  28.9625         83
  29.1483         85
  29.3340         78
  29.5198         76
  29.7055         84
  29.8913         84
  30.0771         74
  30.2628         95
  30.4486         95
  30.6343         84
  30.8201         78
  31.0058         66
  31.1916         74
  31.3774         66
  31.5631         82
  31.7489         58
  31.9346         57
  32.1204         62
  32.3061         73
  32.4919         64
  32.6776         73
  32.8634         60
  33.0492         54
  33.2349         61
  33.4207         56
  33.6064         55
  33.7922         59
  33.9779         60
  34.1637         52
  34.3494         55
  34.5352         54
  34.7210         76
  34.9067         61
  35.0925         45
  35.2782         41
  35.4640         35
  35.6497         51
  35.8355         49
  36.0213         48
  36.2070         46
  36.3928         55
  36.5785         59
  36.7643         44
  36.9500         33
  37.1358         45
  37.3215         37
  37.5073         53
  37.6931         41
  37.8788         44
  38.0646         51
  38.2503         41
  38.4361         55
  38.6218         38
  38.8076         49
  38.9933         32
  39.1791         41
  39.3649         40
  39.5506         42
  39.7364         42
  39.9221         43
  40.1079         44
  40.2936         45
  40.4794         46
  40.6652         40
  40.8509         35
  41.0367         40
  41.2224         41
  41.4082         42
  41.5939         46
  41.7797         27
  41.9654         33
  42.1512         35
  42.3370         38
  42.5227         36
  42.7085         38
  42.8942         37
  43.0800         40
  43.2657         43
  43.4515         38
  43.6372         44
  43.8230         30
  44.0088         41
  44.1945         34
  44.3803         32
  44.5660         31
  44.7518         39
  44.9375         26
  45.1233         28
  45.3091         27
  45.4948         35
  45.6806         34
  45.8663         36
  46.0521         28
  46.2378         44
  46.4236         20
  46.6093         28
  46.7951         33
  46.9809         30
  47.1666         29
  47.3524         36
  47.5381         29
  47.7239         29
  47.9096         35
  48.0954         26
  48.2811         28
  48.4669         24
  48.6527         32
  48.8384         37
  49.0242         35
  49.2099         23
  49.3957         34
  49.5814         28
  49.7672         31
  49.9530         38
  50.1387         29
  50.3245         27
  50.5102         30
  50.6960         25
  50.8817         27
  51.0675         31
  51.2532         23
  51.4390         37
  51.6248         39
  51.8105         39
  51.9963         24
  52.1820         23
  52.3678         21
  52.5535         32
  52.7393         29
  52.9250         22
  53.1108         31
  53.2966         30
  53.4823         31
  53.6681         37
  53.8538         33
  54.0396         29
  54.2253         35
  54.4111         35
  54.5969         31
  54.7826         26
  54.9684         31
  55.1541         30
  55.3399         24
  55.5256         30
  55.7114         15
  55.8971         38
  56.0829         16
  56.2687         27
  56.4544         36
  56.6402         24
  56.8259         19
  57.0117         19
  57.1974         32
  57.3832         24
  57.5689         30
  57.7547         18
  57.9405         29
  58.1262         22
  58.3120         24
  58.4977         26
  58.6835         21
  58.8692         25
  59.0550         27
  59.2408         31
  59.4265         25
  59.6123         38
  59.7980         32
  59.9838         27
  60.0024         25