File: notebooks/data/xrd_data/ML_20220718_40_SJD_4_LaB6-4min.uxd
; (content of file Y:\Sam\Apurva-07-20-2022\puck4\ML_20220718_40_SJD_4_LaB6-4min.raw)
_FILEVERSION = 3
_SAMPLE = ML_20220718_40_SJD_4_LaB6-4min
_+SAMPLE =
_SITE = USA
_USER = Administrator
_GONIOMETER_CODE = 20
; Goniometer : D8 theta/2theta, stage : Unknown
_ATTACHMENTS_CODE = 0
_GONIOMETER_RADIUS = 200.5
_FIXED_DIVSLIT = 0.6
_FIXED_SAMPLESLIT = 0
_SOLLER_SLITS = 2
_FIXED_DETSLIT = 9.55
_MONOCHROMATOR = 0
; Incident beam monochromator : None
_SOLLER_SLITS_2 = N
_THIN_FILM = N
_BETA_FILTER = Y
_FIXED_ANTISLIT = 5.89
_ANALYZER_CODE = 0
; Received beam analyzer : None
_DATEMEASURED = "26-Jul-2022 13:16:01"
_WL_UNIT = A
_WL1 = 1.5406
_WL2 = 1.54439
_WL3 = 1.39222
_WLRATIO = 0.5
_ANODE = Cu
_V4_INF_CREATOR = XRDWizard
_V4_INF_CREATOR_VERSION = V2.9.0.22
_V4_INF_WIZARD_VERSION = V2.9.0.22
_V4_INF_WIZARD_ADDINS = V2.9.0.22
_V4_INF_WIZARD_DOCTYPE = XRD
_V4_INF_OSUSER = McQueenLab
_V4_INF_USER = Administrator
_V4_INF_SITE = USA
_V4_INF_SAMPLEID = ML_20220718_40_SJD_4_LaB6-4min

; Data for range 1
_DRIVE = COUPLED
_STEPTIME = 11.28
_STEPSIZE = 0.0185756
_STEPMODE = C
_START = 5
_THETA = 2.5
_2THETA = 5
_KHI = 0
_PHI = 0
_X = 0
_Y = 0
_Z = 0
_DETECTOR = 5
; Detector type : Unknown
_DETECTORSLIT = unkn
_AUX1 = 0
_AUX2 = 0
_AUX3 = 0
_TIMESTARTED = 16
_TEMP_RATE = -1
_TEMP_DELAY = -1
_KV = 40
_MA = 40
_RANGE_WL = 1.5406
_3DPLANE = 0
_V4_ADDITIONALDETECTOR = 257
_V4_PSD2THETA = 3.3661
_V4_PSDCHANNEL1 = 0
_V4_PSDAPERTURE = 12.68
_V4_PSDTYPE = 5
_V4_PSDFIXED = 0
_V4_COUNTERS_MASK = 4096
_V4_DRIVES_MASK = 0
_V4_ENCODERS_MASK = 0
_2THETACOUNTS = 1
; 2THETA  PSD
   5.0000        265
   5.1858        239
   5.3715        238
   5.5573        218
   5.7430        234
   5.9288        223
   6.1145        211
   6.3003        171
   6.4860        170
   6.6718        166
   6.8576        162
   7.0433        176
   7.2291        165
   7.4148        163
   7.6006        164
   7.7863        182
   7.9721        214
   8.1579        198
   8.3436        204
   8.5294        196
   8.7151        187
   8.9009        203
   9.0866        208
   9.2724        203
   9.4581        222
   9.6439        249
   9.8297        245
  10.0154        248
  10.2012        224
  10.3869        248
  10.5727        216
  10.7584        234
  10.9442        260
  11.1299        251
  11.3157        238
  11.5015        224
  11.6872        245
  11.8730        213
  12.0587        231
  12.2445        197
  12.4302        220
  12.6160        250
  12.8018        207
  12.9875        203
  13.1733        197
  13.3590        217
  13.5448        202
  13.7305        198
  13.9163        205
  14.1020        186
  14.2878        197
  14.4736        171
  14.6593        160
  14.8451        165
  15.0308        179
  15.2166        162
  15.4023        175
  15.5881        161
  15.7738        168
  15.9596        184
  16.1454        157
  16.3311        147
  16.5169        154
  16.7026        156
  16.8884        189
  17.0741        178
  17.2599        147
  17.4457        183
  17.6314        148
  17.8172        167
  18.0029        179
  18.1887        174
  18.3744        175
  18.5602        159
  18.7459        169
  18.9317        159
  19.1175        185
  19.3032        185
  19.4890        129
  19.6747        183
  19.8605        180
  20.0462        180
  20.2320        178
  20.4177        159
  20.6035        198
  20.7893        191
  20.9750        214
  21.1608        236
  21.3465        486
  21.5323        201
  21.7180        195
  21.9038        183
  22.0896        196
  22.2753        213
  22.4611        193
  22.6468        205
  22.8326        226
  23.0183        183
  23.2041        195
  23.3898        223
  23.5756        175
  23.7614        194
  23.9471        206
  24.1329        192
  24.3186        257
  24.5044        215
  24.6901        187
  24.8759        211
  25.0616        178
  25.2474        202
  25.4332        221
  25.6189        193
  25.8047        174
  25.9904        197
  26.1762        211
  26.3619        208
  26.5477        175
  26.7335        167
  26.9192        199
  27.1050        171
  27.2907        208
  27.4765        162
  27.6622        192
  27.8480        183
  28.0337        155
  28.2195        178
  28.4053        175
  28.5910        173
  28.7768        174
  28.9625        172
  29.1483        216
  29.3340        156
  29.5198        166
  29.7055        179
  29.8913        164
  30.0771        162
  30.2628        179
  30.4486        249
  30.6343        162
  30.8201        176
  31.0058        161
  31.1916        159
  31.3774        181
  31.5631        125
  31.7489        118
  31.9346        123
  32.1204        130
  32.3061        132
  32.4919        130
  32.6776        116
  32.8634        123
  33.0492        118
  33.2349        124
  33.4207        125
  33.6064        121
  33.7922        118
  33.9779        110
  34.1637        102
  34.3494        121
  34.5352        123
  34.7210        136
  34.9067        114
  35.0925        112
  35.2782        107
  35.4640         92
  35.6497         89
  35.8355         93
  36.0213         97
  36.2070         92
  36.3928         95
  36.5785         94
  36.7643         89
  36.9500        106
  37.1358        107
  37.3215        106
  37.5073        132
  37.6931        116
  37.8788         82
  38.0646         75
  38.2503         72
  38.4361         87
  38.6218        105
  38.8076         87
  38.9933         74
  39.1791         76
  39.3649         89
  39.5506         91
  39.7364         72
  39.9221        106
  40.1079         77
  40.2936         68
  40.4794         86
  40.6652         72
  40.8509         92
  41.0367         86
  41.2224         75
  41.4082         70
  41.5939         77
  41.7797         73
  41.9654         84
  42.1512         73
  42.3370         68
  42.5227         72
  42.7085         74
  42.8942         75
  43.0800         75
  43.2657         72
  43.4515         89
  43.6372        133
  43.8230         76
  44.0088         67
  44.1945         68
  44.3803         68
  44.5660         85
  44.7518         78
  44.9375         72
  45.1233         72
  45.3091         73
  45.4948         74
  45.6806         71
  45.8663         60
  46.0521         79
  46.2378         66
  46.4236         81
  46.6093         55
  46.7951         53
  46.9809         67
  47.1666         67
  47.3524         74
  47.5381         51
  47.7239         59
  47.9096         47
  48.0954         61
  48.2811         64
  48.4669         66
  48.6527         70
  48.8384         71
  49.0242         61
  49.2099         68
  49.3957         49
  49.5814         67
  49.7672         56
  49.9530         81
  50.1387         61
  50.3245         73
  50.5102         49
  50.6960         61
  50.8817         48
  51.0675         50
  51.2532         60
  51.4390         64
  51.6248         68
  51.8105         63
  51.9963         76
  52.1820         59
  52.3678         64
  52.5535         51
  52.7393         68
  52.9250         49
  53.1108         63
  53.2966         58
  53.4823         54
  53.6681         55
  53.8538         68
  54.0396         54
  54.2253         61
  54.4111         57
  54.5969         66
  54.7826         51
  54.9684         69
  55.1541         47
  55.3399         45
  55.5256         47
  55.7114         53
  55.8971         41
  56.0829         67
  56.2687         85
  56.4544         55
  56.6402         61
  56.8259         46
  57.0117         50
  57.1974         63
  57.3832         65
  57.5689         57
  57.7547         52
  57.9405         63
  58.1262         46
  58.3120         62
  58.4977         46
  58.6835         54
  58.8692         58
  59.0550         58
  59.2408         45
  59.4265         59
  59.6123         51
  59.7980         52
  59.9838         52
  60.0024         60