File: notebooks/data/xrd_data/ML_20220720_1_SJD_4_LaB6-1min.uxd
; (content of file Y:\Sam\Apurva-07-20-2022\puck4\ML_20220718_1_SJD_0_LaB6-1min.raw)
_FILEVERSION = 3
_SAMPLE = ML_20220718_1_SJD_0_LaB6-1mi
_+SAMPLE =
_SITE = USA
_USER = Administrator
_GONIOMETER_CODE = 20
; Goniometer : D8 theta/2theta, stage : Unknown
_ATTACHMENTS_CODE = 0
_GONIOMETER_RADIUS = 200.5
_FIXED_DIVSLIT = 0.6
_FIXED_SAMPLESLIT = 0
_SOLLER_SLITS = 2
_FIXED_DETSLIT = 9.55
_MONOCHROMATOR = 0
; Incident beam monochromator : None
_SOLLER_SLITS_2 = N
_THIN_FILM = N
_BETA_FILTER = Y
_FIXED_ANTISLIT = 5.89
_ANALYZER_CODE = 0
; Received beam analyzer : None
_DATEMEASURED = "21-Jul-2022 03:00:33"
_WL_UNIT = A
_WL1 = 1.5406
_WL2 = 1.54439
_WL3 = 1.39222
_WLRATIO = 0.5
_ANODE = Cu
_V4_INF_CREATOR = XRDWizard
_V4_INF_CREATOR_VERSION = V2.9.0.22
_V4_INF_WIZARD_VERSION = V2.9.0.22
_V4_INF_WIZARD_ADDINS = V2.9.0.22
_V4_INF_WIZARD_DOCTYPE = XRD
_V4_INF_OSUSER = McQueenLab
_V4_INF_USER = Administrator
_V4_INF_SITE = USA
_V4_INF_SAMPLEID = ML_20220718_1_SJD_0_LaB6-1mi

; Data for range 1
_DRIVE = COUPLED
_STEPTIME = 4.23
_STEPSIZE = 0.0185756
_STEPMODE = C
_START = 5
_THETA = 2.5
_2THETA = 5
_KHI = 0
_PHI = 0
_X = 0
_Y = 0
_Z = 0
_DETECTOR = 5
; Detector type : Unknown
_DETECTORSLIT = unkn
_AUX1 = 0
_AUX2 = 0
_AUX3 = 0
_TIMESTARTED = 15
_TEMP_RATE = -1
_TEMP_DELAY = -1
_KV = 40
_MA = 40
_RANGE_WL = 1.5406
_3DPLANE = 0
_V4_ADDITIONALDETECTOR = 257
_V4_PSD2THETA = 3.4374
_V4_PSDCHANNEL1 = 0
_V4_PSDAPERTURE = 12.68
_V4_PSDTYPE = 5
_V4_PSDFIXED = 0
_V4_COUNTERS_MASK = 4096
_V4_DRIVES_MASK = 0
_V4_ENCODERS_MASK = 0
_2THETACOUNTS = 1
; 2THETA  PSD
   5.0000         97
   5.1858        102
   5.3715         72
   5.5573         63
   5.7430         74
   5.9288         60
   6.1145         82
   6.3003         55
   6.4860         57
   6.6718         62
   6.8576         61
   7.0433         59
   7.2291         57
   7.4148         63
   7.6006         50
   7.7863         63
   7.9721         65
   8.1579         74
   8.3436         80
   8.5294         73
   8.7151         61
   8.9009         75
   9.0866         68
   9.2724         71
   9.4581        101
   9.6439         55
   9.8297         80
  10.0154         81
  10.2012         90
  10.3869         80
  10.5727         72
  10.7584         87
  10.9442         73
  11.1299         78
  11.3157         70
  11.5015         82
  11.6872         71
  11.8730         95
  12.0587        102
  12.2445         86
  12.4302         59
  12.6160         78
  12.8018         76
  12.9875         78
  13.1733         68
  13.3590         67
  13.5448         74
  13.7305         64
  13.9163         56
  14.1020         67
  14.2878         76
  14.4736         65
  14.6593         39
  14.8451         57
  15.0308         78
  15.2166         60
  15.4023         47
  15.5881         71
  15.7738         51
  15.9596         68
  16.1454         57
  16.3311         57
  16.5169         70
  16.7026         69
  16.8884         71
  17.0741         66
  17.2599         63
  17.4457         47
  17.6314         51
  17.8172         54
  18.0029         72
  18.1887         72
  18.3744         72
  18.5602         64
  18.7459         57
  18.9317         53
  19.1175         41
  19.3032         71
  19.4890         72
  19.6747         63
  19.8605         67
  20.0462         58
  20.2320         71
  20.4177         65
  20.6035         54
  20.7893         85
  20.9750         68
  21.1608         81
  21.3465        189
  21.5323         78
  21.7180         70
  21.9038         56
  22.0896         76
  22.2753         78
  22.4611         64
  22.6468         67
  22.8326         77
  23.0183         83
  23.2041         76
  23.3898         70
  23.5756         81
  23.7614         72
  23.9471         82
  24.1329         77
  24.3186         81
  24.5044         72
  24.6901         68
  24.8759         71
  25.0616         81
  25.2474         73
  25.4332         54
  25.6189         74
  25.8047         80
  25.9904         79
  26.1762         75
  26.3619         67
  26.5477         76
  26.7335         69
  26.9192         59
  27.1050         73
  27.2907         75
  27.4765         63
  27.6622         69
  27.8480         63
  28.0337         67
  28.2195         66
  28.4053         59
  28.5910         43
  28.7768         60
  28.9625         52
  29.1483         53
  29.3340         47
  29.5198         51
  29.7055         55
  29.8913         64
  30.0771         72
  30.2628         61
  30.4486         74
  30.6343         60
  30.8201         49
  31.0058         54
  31.1916         53
  31.3774         38
  31.5631         63
  31.7489         40
  31.9346         52
  32.1204         44
  32.3061         51
  32.4919         56
  32.6776         47
  32.8634         57
  33.0492         61
  33.2349         38
  33.4207         45
  33.6064         48
  33.7922         48
  33.9779         40
  34.1637         27
  34.3494         44
  34.5352         44
  34.7210         60
  34.9067         42
  35.0925         37
  35.2782         45
  35.4640         37
  35.6497         41
  35.8355         31
  36.0213         41
  36.2070         31
  36.3928         39
  36.5785         33
  36.7643         26
  36.9500         28
  37.1358         35
  37.3215         30
  37.5073         36
  37.6931         24
  37.8788         36
  38.0646         29
  38.2503         28
  38.4361         32
  38.6218         29
  38.8076         26
  38.9933         28
  39.1791         35
  39.3649         27
  39.5506         28
  39.7364         29
  39.9221         30
  40.1079         26
  40.2936         32
  40.4794         23
  40.6652         24
  40.8509         30
  41.0367         25
  41.2224         27
  41.4082         34
  41.5939         36
  41.7797         30
  41.9654         28
  42.1512         32
  42.3370         16
  42.5227         31
  42.7085         33
  42.8942         20
  43.0800         21
  43.2657         29
  43.4515         36
  43.6372         34
  43.8230         25
  44.0088         35
  44.1945         27
  44.3803         26
  44.5660         28
  44.7518         20
  44.9375         26
  45.1233         34
  45.3091         27
  45.4948         20
  45.6806         30
  45.8663         24
  46.0521         25
  46.2378         33
  46.4236         27
  46.6093         17
  46.7951         12
  46.9809         24
  47.1666         23
  47.3524         24
  47.5381         15
  47.7239         20
  47.9096         33
  48.0954         18
  48.2811         20
  48.4669         22
  48.6527         22
  48.8384         24
  49.0242         28
  49.2099         28
  49.3957         31
  49.5814         27
  49.7672         22
  49.9530         23
  50.1387         21
  50.3245         23
  50.5102         25
  50.6960         37
  50.8817         25
  51.0675         26
  51.2532         21
  51.4390         29
  51.6248         26
  51.8105         27
  51.9963         25
  52.1820         27
  52.3678         24
  52.5535         20
  52.7393         17
  52.9250         20
  53.1108         25
  53.2966         18
  53.4823         25
  53.6681         24
  53.8538         21
  54.0396         26
  54.2253         26
  54.4111         19
  54.5969         19
  54.7826         20
  54.9684         14
  55.1541         21
  55.3399         16
  55.5256         25
  55.7114         21
  55.8971         21
  56.0829         23
  56.2687         29
  56.4544         19
  56.6402         20
  56.8259         26
  57.0117         19
  57.1974         25
  57.3832         18
  57.5689         20
  57.7547         26
  57.9405         15
  58.1262         30
  58.3120         24
  58.4977         18
  58.6835         17
  58.8692         13
  59.0550         26
  59.2408         18
  59.4265         13
  59.6123         17
  59.7980         25
  59.9838         24
  60.0024         20