File: notebooks/data/xrd_data/ML_20220718_57_SJD_4_LaB6-1min.csv
;,2THETA,
5.0000,110
5.1858,95
5.3715,77
5.5573,81
5.7430,80
5.9288,88
6.1145,68
6.3003,69
6.4860,71
6.6718,72
6.8576,64
7.0433,55
7.2291,65
7.4148,53
7.6006,54
7.7863,60
7.9721,71
8.1579,75
8.3436,71
8.5294,71
8.7151,69
8.9009,81
9.0866,79
9.2724,71
9.4581,84
9.6439,78
9.8297,87
10.0154,82
10.2012,96
10.3869,95
10.5727,81
10.7584,87
10.9442,89
11.1299,83
11.3157,86
11.5015,89
11.6872,91
11.8730,74
12.0587,76
12.2445,83
12.4302,88
12.6160,66
12.8018,68
12.9875,58
13.1733,90
13.3590,61
13.5448,70
13.7305,57
13.9163,84
14.1020,77
14.2878,54
14.4736,57
14.6593,63
14.8451,62
15.0308,63
15.2166,68
15.4023,53
15.5881,61
15.7738,48
15.9596,69
16.1454,60
16.3311,59
16.5169,59
16.7026,51
16.8884,71
17.0741,52
17.2599,54
17.4457,63
17.6314,60
17.8172,58
18.0029,49
18.1887,55
18.3744,62
18.5602,65
18.7459,69
18.9317,59
19.1175,68
19.3032,65
19.4890,57
19.6747,82
19.8605,68
20.0462,70
20.2320,75
20.4177,67
20.6035,69
20.7893,62
20.9750,68
21.1608,73
21.3465,170
21.5323,77
21.7180,55
21.9038,78
22.0896,59
22.2753,76
22.4611,69
22.6468,69
22.8326,72
23.0183,66
23.2041,79
23.3898,80
23.5756,69
23.7614,69
23.9471,72
24.1329,71
24.3186,88
24.5044,79
24.6901,59
24.8759,78
25.0616,64
25.2474,57
25.4332,71
25.6189,58
25.8047,82
25.9904,64
26.1762,64
26.3619,79
26.5477,62
26.7335,69
26.9192,66
27.1050,74
27.2907,83
27.4765,80
27.6622,77
27.8480,42
28.0337,58
28.2195,61
28.4053,61
28.5910,62
28.7768,71
28.9625,61
29.1483,55
29.3340,56
29.5198,62
29.7055,46
29.8913,53
30.0771,58
30.2628,71
30.4486,88
30.6343,63
30.8201,63
31.0058,63
31.1916,51
31.3774,48
31.5631,52
31.7489,44
31.9346,58
32.1204,45
32.3061,51
32.4919,62
32.6776,45
32.8634,36
33.0492,31
33.2349,48
33.4207,36
33.6064,21
33.7922,43
33.9779,36
34.1637,37
34.3494,41
34.5352,35
34.7210,44
34.9067,42
35.0925,31
35.2782,52
35.4640,41
35.6497,34
35.8355,34
36.0213,47
36.2070,38
36.3928,34
36.5785,33
36.7643,34
36.9500,39
37.1358,30
37.3215,35
37.5073,42
37.6931,37
37.8788,26
38.0646,27
38.2503,33
38.4361,38
38.6218,33
38.8076,34
38.9933,23
39.1791,26
39.3649,26
39.5506,26
39.7364,20
39.9221,31
40.1079,35
40.2936,25
40.4794,28
40.6652,35
40.8509,26
41.0367,33
41.2224,31
41.4082,29
41.5939,17
41.7797,28
41.9654,22
42.1512,26
42.3370,26
42.5227,35
42.7085,30
42.8942,28
43.0800,26
43.2657,30
43.4515,22
43.6372,34
43.8230,25
44.0088,17
44.1945,26
44.3803,27
44.5660,25
44.7518,29
44.9375,25
45.1233,22
45.3091,29
45.4948,30
45.6806,31
45.8663,18
46.0521,18
46.2378,17
46.4236,33
46.6093,22
46.7951,34
46.9809,32
47.1666,19
47.3524,31
47.5381,27
47.7239,36
47.9096,22
48.0954,17
48.2811,22
48.4669,29
48.6527,31
48.8384,23
49.0242,23
49.2099,30
49.3957,31
49.5814,26
49.7672,26
49.9530,17
50.1387,19
50.3245,20
50.5102,14
50.6960,22
50.8817,26
51.0675,21
51.2532,18
51.4390,30
51.6248,21
51.8105,31
51.9963,27
52.1820,16
52.3678,13
52.5535,27
52.7393,26
52.9250,23
53.1108,20
53.2966,12
53.4823,26
53.6681,24
53.8538,21
54.0396,8
54.2253,22
54.4111,13
54.5969,16
54.7826,20
54.9684,24
55.1541,21
55.3399,26
55.5256,17
55.7114,13
55.8971,18
56.0829,27
56.2687,17
56.4544,21
56.6402,21
56.8259,14
57.0117,21
57.1974,21
57.3832,14
57.5689,24
57.7547,24
57.9405,18
58.1262,14
58.3120,31
58.4977,21
58.6835,19
58.8692,21
59.0550,9
59.2408,21
59.4265,10
59.6123,28
59.7980,21
59.9838,23
60.0024,19