File: notebooks/data/xrd_data/ML_20220720_15_SJD_4_LaB6-1min.uxd
; (content of file Y:\Sam\Apurva-07-20-2022\puck2\ML_20220720_15_SJD_0_LaB6-1min.raw)
_FILEVERSION = 3
_SAMPLE = ML_20220720_15_SJD_0_LaB6-1mi
_+SAMPLE =
_SITE = USA
_USER = Administrator
_GONIOMETER_CODE = 20
; Goniometer : D8 theta/2theta, stage : Unknown
_ATTACHMENTS_CODE = 0
_GONIOMETER_RADIUS = 200.5
_FIXED_DIVSLIT = 0.6
_FIXED_SAMPLESLIT = 0
_SOLLER_SLITS = 2
_FIXED_DETSLIT = 9.55
_MONOCHROMATOR = 0
; Incident beam monochromator : None
_SOLLER_SLITS_2 = N
_THIN_FILM = N
_BETA_FILTER = Y
_FIXED_ANTISLIT = 5.89
_ANALYZER_CODE = 0
; Received beam analyzer : None
_DATEMEASURED = "25-Jul-2022 18:14:18"
_WL_UNIT = A
_WL1 = 1.5406
_WL2 = 1.54439
_WL3 = 1.39222
_WLRATIO = 0.5
_ANODE = Cu
_V4_INF_CREATOR = XRDWizard
_V4_INF_CREATOR_VERSION = V2.9.0.22
_V4_INF_WIZARD_VERSION = V2.9.0.22
_V4_INF_WIZARD_ADDINS = V2.9.0.22
_V4_INF_WIZARD_DOCTYPE = XRD
_V4_INF_OSUSER = McQueenLab
_V4_INF_USER = Administrator
_V4_INF_SITE = USA
_V4_INF_SAMPLEID = ML_20220720_15_SJD_0_LaB6-1mi

; Data for range 1
_DRIVE = COUPLED
_STEPTIME = 4.23
_STEPSIZE = 0.0185756
_STEPMODE = C
_START = 5
_THETA = 2.5
_2THETA = 5
_KHI = 0
_PHI = 0
_X = 0
_Y = 0
_Z = 0
_DETECTOR = 5
; Detector type : Unknown
_DETECTORSLIT = unkn
_AUX1 = 0
_AUX2 = 0
_AUX3 = 0
_TIMESTARTED = 16
_TEMP_RATE = -1
_TEMP_DELAY = -1
_KV = 40
_MA = 40
_RANGE_WL = 1.5406
_3DPLANE = 0
_V4_ADDITIONALDETECTOR = 257
_V4_PSD2THETA = 3.4436
_V4_PSDCHANNEL1 = 0
_V4_PSDAPERTURE = 12.68
_V4_PSDTYPE = 5
_V4_PSDFIXED = 0
_V4_COUNTERS_MASK = 4096
_V4_DRIVES_MASK = 0
_V4_ENCODERS_MASK = 0
_2THETACOUNTS = 1
; 2THETA  PSD
   5.0000         83
   5.1858        109
   5.3715         85
   5.5573         73
   5.7430         85
   5.9288         69
   6.1145         81
   6.3003         57
   6.4860         48
   6.6718         60
   6.8576         50
   7.0433         64
   7.2291         62
   7.4148         66
   7.6006         62
   7.7863         62
   7.9721         65
   8.1579         87
   8.3436         77
   8.5294         78
   8.7151         54
   8.9009         76
   9.0866         80
   9.2724         86
   9.4581         92
   9.6439         85
   9.8297        100
  10.0154        102
  10.2012         93
  10.3869         97
  10.5727         95
  10.7584         81
  10.9442         67
  11.1299         98
  11.3157         79
  11.5015        101
  11.6872         88
  11.8730         79
  12.0587         72
  12.2445         88
  12.4302         87
  12.6160         83
  12.8018         92
  12.9875         88
  13.1733         64
  13.3590         86
  13.5448         70
  13.7305         67
  13.9163         79
  14.1020         54
  14.2878         69
  14.4736         62
  14.6593         74
  14.8451         61
  15.0308         70
  15.2166         64
  15.4023         63
  15.5881         66
  15.7738         73
  15.9596         70
  16.1454         47
  16.3311         65
  16.5169         56
  16.7026         59
  16.8884         61
  17.0741         57
  17.2599         74
  17.4457         48
  17.6314         65
  17.8172         53
  18.0029         55
  18.1887         49
  18.3744         62
  18.5602         60
  18.7459         59
  18.9317         63
  19.1175         69
  19.3032         61
  19.4890         71
  19.6747         58
  19.8605         55
  20.0462         58
  20.2320         70
  20.4177         58
  20.6035         66
  20.7893         73
  20.9750         76
  21.1608         79
  21.3465        165
  21.5323         77
  21.7180         66
  21.9038         91
  22.0896         88
  22.2753         88
  22.4611         87
  22.6468         75
  22.8326         89
  23.0183         75
  23.2041         70
  23.3898         74
  23.5756         93
  23.7614         95
  23.9471         55
  24.1329         79
  24.3186         96
  24.5044         73
  24.6901         73
  24.8759         75
  25.0616         74
  25.2474         77
  25.4332         78
  25.6189         68
  25.8047         70
  25.9904         77
  26.1762         81
  26.3619         64
  26.5477         81
  26.7335         61
  26.9192         60
  27.1050         67
  27.2907        103
  27.4765         67
  27.6622         65
  27.8480         55
  28.0337         82
  28.2195         78
  28.4053         68
  28.5910         57
  28.7768         63
  28.9625         48
  29.1483         59
  29.3340         57
  29.5198         70
  29.7055         57
  29.8913         67
  30.0771         60
  30.2628         56
  30.4486         81
  30.6343         54
  30.8201         48
  31.0058         60
  31.1916         48
  31.3774         39
  31.5631         55
  31.7489         57
  31.9346         67
  32.1204         42
  32.3061         49
  32.4919         58
  32.6776         46
  32.8634         38
  33.0492         52
  33.2349         36
  33.4207         29
  33.6064         39
  33.7922         52
  33.9779         46
  34.1637         52
  34.3494         55
  34.5352         41
  34.7210         65
  34.9067         27
  35.0925         40
  35.2782         39
  35.4640         33
  35.6497         52
  35.8355         33
  36.0213         39
  36.2070         34
  36.3928         27
  36.5785         39
  36.7643         36
  36.9500         39
  37.1358         39
  37.3215         32
  37.5073         43
  37.6931         31
  37.8788         49
  38.0646         30
  38.2503         41
  38.4361         27
  38.6218         23
  38.8076         39
  38.9933         29
  39.1791         32
  39.3649         30
  39.5506         29
  39.7364         32
  39.9221         32
  40.1079         26
  40.2936         18
  40.4794         30
  40.6652         31
  40.8509         24
  41.0367         26
  41.2224         30
  41.4082         35
  41.5939         34
  41.7797         31
  41.9654         30
  42.1512         25
  42.3370         23
  42.5227         31
  42.7085         36
  42.8942         26
  43.0800         31
  43.2657         31
  43.4515         34
  43.6372         35
  43.8230         28
  44.0088         37
  44.1945         19
  44.3803         29
  44.5660         24
  44.7518         25
  44.9375         23
  45.1233         17
  45.3091         29
  45.4948         26
  45.6806         26
  45.8663         23
  46.0521         20
  46.2378         25
  46.4236         23
  46.6093         25
  46.7951         25
  46.9809         24
  47.1666         30
  47.3524         17
  47.5381         27
  47.7239         15
  47.9096         18
  48.0954         25
  48.2811         31
  48.4669         21
  48.6527         34
  48.8384         21
  49.0242         27
  49.2099         18
  49.3957         19
  49.5814         20
  49.7672         35
  49.9530         25
  50.1387         22
  50.3245         23
  50.5102         23
  50.6960         19
  50.8817         25
  51.0675         25
  51.2532         24
  51.4390         29
  51.6248         22
  51.8105         29
  51.9963         23
  52.1820         29
  52.3678         21
  52.5535         30
  52.7393         20
  52.9250         28
  53.1108         20
  53.2966         29
  53.4823         29
  53.6681         26
  53.8538         27
  54.0396         28
  54.2253         25
  54.4111         20
  54.5969         17
  54.7826         18
  54.9684         24
  55.1541         26
  55.3399         27
  55.5256         21
  55.7114         23
  55.8971         21
  56.0829         19
  56.2687         33
  56.4544         23
  56.6402         15
  56.8259         20
  57.0117         25
  57.1974         22
  57.3832         19
  57.5689         27
  57.7547         20
  57.9405         21
  58.1262         24
  58.3120         26
  58.4977         21
  58.6835         21
  58.8692         13
  59.0550         22
  59.2408         21
  59.4265         14
  59.6123         21
  59.7980         24
  59.9838         25
  60.0024         19