File: notebooks/data/xrd_data/ML_20220720_1_SJD_4_LaB6-4min.uxd
; (content of file Y:\Sam\Apurva-07-20-2022\puck4\ML_20220718_1_SJD_0_LaB6-4min.raw)
_FILEVERSION = 3
_SAMPLE = ML_20220718_1_SJD_0_LaB6-4mi
_+SAMPLE =
_SITE = USA
_USER = Administrator
_GONIOMETER_CODE = 20
; Goniometer : D8 theta/2theta, stage : Unknown
_ATTACHMENTS_CODE = 0
_GONIOMETER_RADIUS = 200.5
_FIXED_DIVSLIT = 0.6
_FIXED_SAMPLESLIT = 0
_SOLLER_SLITS = 2
_FIXED_DETSLIT = 9.55
_MONOCHROMATOR = 0
; Incident beam monochromator : None
_SOLLER_SLITS_2 = N
_THIN_FILM = N
_BETA_FILTER = Y
_FIXED_ANTISLIT = 5.89
_ANALYZER_CODE = 0
; Received beam analyzer : None
_DATEMEASURED = "21-Jul-2022 02:42:14"
_WL_UNIT = A
_WL1 = 1.5406
_WL2 = 1.54439
_WL3 = 1.39222
_WLRATIO = 0.5
_ANODE = Cu
_V4_INF_CREATOR = XRDWizard
_V4_INF_CREATOR_VERSION = V2.9.0.22
_V4_INF_WIZARD_VERSION = V2.9.0.22
_V4_INF_WIZARD_ADDINS = V2.9.0.22
_V4_INF_WIZARD_DOCTYPE = XRD
_V4_INF_OSUSER = McQueenLab
_V4_INF_USER = Administrator
_V4_INF_SITE = USA
_V4_INF_SAMPLEID = ML_20220718_1_SJD_0_LaB6-4mi

; Data for range 1
_DRIVE = COUPLED
_STEPTIME = 11.28
_STEPSIZE = 0.0185756
_STEPMODE = C
_START = 5
_THETA = 2.5
_2THETA = 5
_KHI = 0
_PHI = 0
_X = 0
_Y = 0
_Z = 0
_DETECTOR = 5
; Detector type : Unknown
_DETECTORSLIT = unkn
_AUX1 = 0
_AUX2 = 0
_AUX3 = 0
_TIMESTARTED = 15
_TEMP_RATE = -1
_TEMP_DELAY = -1
_KV = 40
_MA = 40
_RANGE_WL = 1.5406
_3DPLANE = 0
_V4_ADDITIONALDETECTOR = 257
_V4_PSD2THETA = 3.3878
_V4_PSDCHANNEL1 = 0
_V4_PSDAPERTURE = 12.68
_V4_PSDTYPE = 5
_V4_PSDFIXED = 0
_V4_COUNTERS_MASK = 4096
_V4_DRIVES_MASK = 0
_V4_ENCODERS_MASK = 0
_2THETACOUNTS = 1
; 2THETA  PSD
   5.0000        276
   5.1858        241
   5.3715        217
   5.5573        215
   5.7430        242
   5.9288        178
   6.1145        201
   6.3003        200
   6.4860        155
   6.6718        167
   6.8576        165
   7.0433        173
   7.2291        176
   7.4148        184
   7.6006        195
   7.7863        188
   7.9721        198
   8.1579        175
   8.3436        172
   8.5294        173
   8.7151        214
   8.9009        192
   9.0866        193
   9.2724        206
   9.4581        209
   9.6439        215
   9.8297        234
  10.0154        220
  10.2012        223
  10.3869        247
  10.5727        230
  10.7584        238
  10.9442        229
  11.1299        234
  11.3157        218
  11.5015        258
  11.6872        229
  11.8730        230
  12.0587        227
  12.2445        202
  12.4302        222
  12.6160        190
  12.8018        222
  12.9875        204
  13.1733        198
  13.3590        197
  13.5448        171
  13.7305        182
  13.9163        180
  14.1020        180
  14.2878        168
  14.4736        163
  14.6593        168
  14.8451        156
  15.0308        157
  15.2166        132
  15.4023        166
  15.5881        159
  15.7738        158
  15.9596        155
  16.1454        138
  16.3311        126
  16.5169        140
  16.7026        147
  16.8884        158
  17.0741        157
  17.2599        151
  17.4457        154
  17.6314        159
  17.8172        173
  18.0029        173
  18.1887        180
  18.3744        166
  18.5602        153
  18.7459        178
  18.9317        171
  19.1175        187
  19.3032        176
  19.4890        178
  19.6747        167
  19.8605        169
  20.0462        188
  20.2320        171
  20.4177        175
  20.6035        196
  20.7893        181
  20.9750        186
  21.1608        265
  21.3465        498
  21.5323        170
  21.7180        195
  21.9038        179
  22.0896        218
  22.2753        188
  22.4611        186
  22.6468        200
  22.8326        197
  23.0183        201
  23.2041        197
  23.3898        184
  23.5756        221
  23.7614        201
  23.9471        194
  24.1329        203
  24.3186        239
  24.5044        225
  24.6901        209
  24.8759        206
  25.0616        174
  25.2474        195
  25.4332        189
  25.6189        205
  25.8047        186
  25.9904        185
  26.1762        171
  26.3619        158
  26.5477        177
  26.7335        174
  26.9192        163
  27.1050        215
  27.2907        189
  27.4765        192
  27.6622        184
  27.8480        171
  28.0337        175
  28.2195        158
  28.4053        176
  28.5910        162
  28.7768        163
  28.9625        133
  29.1483        173
  29.3340        158
  29.5198        142
  29.7055        170
  29.8913        140
  30.0771        160
  30.2628        176
  30.4486        252
  30.6343        155
  30.8201        135
  31.0058        145
  31.1916        139
  31.3774        133
  31.5631        154
  31.7489        137
  31.9346        146
  32.1204        120
  32.3061        141
  32.4919        145
  32.6776        131
  32.8634        120
  33.0492        135
  33.2349        113
  33.4207        121
  33.6064        102
  33.7922         98
  33.9779        121
  34.1637        111
  34.3494        121
  34.5352        113
  34.7210        163
  34.9067         98
  35.0925        109
  35.2782         93
  35.4640        104
  35.6497        101
  35.8355        125
  36.0213        116
  36.2070         92
  36.3928         91
  36.5785        112
  36.7643         84
  36.9500        102
  37.1358         98
  37.3215         81
  37.5073        136
  37.6931        101
  37.8788         78
  38.0646         83
  38.2503         84
  38.4361         85
  38.6218         79
  38.8076         86
  38.9933         78
  39.1791        103
  39.3649         79
  39.5506         79
  39.7364         64
  39.9221         66
  40.1079         79
  40.2936         83
  40.4794         71
  40.6652         77
  40.8509         71
  41.0367         72
  41.2224         86
  41.4082         76
  41.5939         71
  41.7797         61
  41.9654         71
  42.1512         81
  42.3370         87
  42.5227         87
  42.7085         59
  42.8942         78
  43.0800         76
  43.2657         91
  43.4515         96
  43.6372         94
  43.8230         62
  44.0088         63
  44.1945         74
  44.3803         76
  44.5660         85
  44.7518         79
  44.9375         80
  45.1233         64
  45.3091         82
  45.4948         65
  45.6806         79
  45.8663         70
  46.0521         73
  46.2378         66
  46.4236         71
  46.6093         68
  46.7951         51
  46.9809         68
  47.1666         40
  47.3524         61
  47.5381         76
  47.7239         64
  47.9096         68
  48.0954         77
  48.2811         53
  48.4669         49
  48.6527         66
  48.8384         67
  49.0242         80
  49.2099         73
  49.3957         53
  49.5814         69
  49.7672         71
  49.9530         65
  50.1387         61
  50.3245         64
  50.5102         53
  50.6960         53
  50.8817         53
  51.0675         66
  51.2532         63
  51.4390         71
  51.6248         71
  51.8105         77
  51.9963         63
  52.1820         53
  52.3678         54
  52.5535         70
  52.7393         63
  52.9250         42
  53.1108         55
  53.2966         54
  53.4823         57
  53.6681         61
  53.8538         61
  54.0396         58
  54.2253         59
  54.4111         61
  54.5969         64
  54.7826         60
  54.9684         59
  55.1541         53
  55.3399         47
  55.5256         64
  55.7114         65
  55.8971         63
  56.0829         75
  56.2687         59
  56.4544         64
  56.6402         57
  56.8259         38
  57.0117         55
  57.1974         57
  57.3832         58
  57.5689         55
  57.7547         41
  57.9405         59
  58.1262         54
  58.3120         50
  58.4977         58
  58.6835         40
  58.8692         64
  59.0550         68
  59.2408         49
  59.4265         77
  59.6123         54
  59.7980         58
  59.9838         42
  60.0024         43