File: notebooks/data/xrd_data/ML_20220720_20_SJD_4_LaB6-1min.uxd
; (content of file Y:\Sam\Apurva-07-20-2022\puck2\ML_20220720_20_SJD_0_LaB6-1min.raw)
_FILEVERSION = 3
_SAMPLE = ML_20220720_20_SJD_0_LaB6-1min
_+SAMPLE =
_SITE = USA
_USER = Administrator
_GONIOMETER_CODE = 20
; Goniometer : D8 theta/2theta, stage : Unknown
_ATTACHMENTS_CODE = 0
_GONIOMETER_RADIUS = 200.5
_FIXED_DIVSLIT = 0.6
_FIXED_SAMPLESLIT = 0
_SOLLER_SLITS = 2
_FIXED_DETSLIT = 9.55
_MONOCHROMATOR = 0
; Incident beam monochromator : None
_SOLLER_SLITS_2 = N
_THIN_FILM = N
_BETA_FILTER = Y
_FIXED_ANTISLIT = 5.89
_ANALYZER_CODE = 0
; Received beam analyzer : None
_DATEMEASURED = "25-Jul-2022 18:23:39"
_WL_UNIT = A
_WL1 = 1.5406
_WL2 = 1.54439
_WL3 = 1.39222
_WLRATIO = 0.5
_ANODE = Cu
_V4_INF_CREATOR = XRDWizard
_V4_INF_CREATOR_VERSION = V2.9.0.22
_V4_INF_WIZARD_VERSION = V2.9.0.22
_V4_INF_WIZARD_ADDINS = V2.9.0.22
_V4_INF_WIZARD_DOCTYPE = XRD
_V4_INF_OSUSER = McQueenLab
_V4_INF_USER = Administrator
_V4_INF_SITE = USA
_V4_INF_SAMPLEID = ML_20220720_20_SJD_0_LaB6-1min

; Data for range 1
_DRIVE = COUPLED
_STEPTIME = 4.23
_STEPSIZE = 0.0185756
_STEPMODE = C
_START = 5
_THETA = 2.5
_2THETA = 5
_KHI = 0
_PHI = 0
_X = 0
_Y = 0
_Z = 0
_DETECTOR = 5
; Detector type : Unknown
_DETECTORSLIT = unkn
_AUX1 = 0
_AUX2 = 0
_AUX3 = 0
_TIMESTARTED = 14
_TEMP_RATE = -1
_TEMP_DELAY = -1
_KV = 40
_MA = 40
_RANGE_WL = 1.5406
_3DPLANE = 0
_V4_ADDITIONALDETECTOR = 257
_V4_PSD2THETA = 3.3766
_V4_PSDCHANNEL1 = 0
_V4_PSDAPERTURE = 12.68
_V4_PSDTYPE = 5
_V4_PSDFIXED = 0
_V4_COUNTERS_MASK = 4096
_V4_DRIVES_MASK = 0
_V4_ENCODERS_MASK = 0
_2THETACOUNTS = 1
; 2THETA  PSD
   5.0000        102
   5.1858        100
   5.3715         87
   5.5573         78
   5.7430         69
   5.9288         81
   6.1145         69
   6.3003         50
   6.4860         58
   6.6718         71
   6.8576         58
   7.0433         49
   7.2291         71
   7.4148         63
   7.6006         62
   7.7863         68
   7.9721         81
   8.1579         91
   8.3436         71
   8.5294         81
   8.7151         77
   8.9009         68
   9.0866         88
   9.2724         74
   9.4581         73
   9.6439         55
   9.8297         71
  10.0154        100
  10.2012         86
  10.3869         88
  10.5727         77
  10.7584         83
  10.9442         93
  11.1299        112
  11.3157        105
  11.5015         90
  11.6872         90
  11.8730         70
  12.0587         89
  12.2445         77
  12.4302         92
  12.6160         91
  12.8018         72
  12.9875         76
  13.1733         51
  13.3590         83
  13.5448         94
  13.7305         61
  13.9163         79
  14.1020         84
  14.2878         64
  14.4736         70
  14.6593         63
  14.8451         52
  15.0308         68
  15.2166         57
  15.4023         66
  15.5881         68
  15.7738         70
  15.9596         57
  16.1454         56
  16.3311         52
  16.5169         53
  16.7026         53
  16.8884         66
  17.0741         63
  17.2599         63
  17.4457         69
  17.6314         64
  17.8172         66
  18.0029         61
  18.1887         50
  18.3744         64
  18.5602         67
  18.7459         81
  18.9317         60
  19.1175         53
  19.3032         79
  19.4890         66
  19.6747         62
  19.8605         60
  20.0462         56
  20.2320         82
  20.4177         63
  20.6035         74
  20.7893         54
  20.9750         78
  21.1608         83
  21.3465        188
  21.5323         79
  21.7180         74
  21.9038         61
  22.0896         83
  22.2753         76
  22.4611         65
  22.6468         66
  22.8326         71
  23.0183         75
  23.2041         92
  23.3898         73
  23.5756         49
  23.7614         72
  23.9471         86
  24.1329         78
  24.3186         83
  24.5044         74
  24.6901         70
  24.8759         67
  25.0616         76
  25.2474         82
  25.4332         70
  25.6189         88
  25.8047         64
  25.9904         80
  26.1762         70
  26.3619         71
  26.5477         81
  26.7335         70
  26.9192         62
  27.1050         57
  27.2907         71
  27.4765         79
  27.6622         66
  27.8480         60
  28.0337         72
  28.2195         63
  28.4053         53
  28.5910         63
  28.7768         55
  28.9625         59
  29.1483         63
  29.3340         56
  29.5198         60
  29.7055         68
  29.8913         43
  30.0771         46
  30.2628         58
  30.4486         82
  30.6343         71
  30.8201         47
  31.0058         44
  31.1916         49
  31.3774         54
  31.5631         59
  31.7489         48
  31.9346         54
  32.1204         46
  32.3061         52
  32.4919         49
  32.6776         47
  32.8634         55
  33.0492         51
  33.2349         40
  33.4207         42
  33.6064         37
  33.7922         38
  33.9779         50
  34.1637         40
  34.3494         44
  34.5352         41
  34.7210         62
  34.9067         41
  35.0925         40
  35.2782         33
  35.4640         47
  35.6497         35
  35.8355         42
  36.0213         34
  36.2070         48
  36.3928         39
  36.5785         26
  36.7643         35
  36.9500         33
  37.1358         35
  37.3215         34
  37.5073         47
  37.6931         39
  37.8788         30
  38.0646         26
  38.2503         24
  38.4361         31
  38.6218         36
  38.8076         35
  38.9933         32
  39.1791         31
  39.3649         30
  39.5506         17
  39.7364         30
  39.9221         33
  40.1079         25
  40.2936         35
  40.4794         27
  40.6652         30
  40.8509         21
  41.0367         29
  41.2224         25
  41.4082         29
  41.5939         34
  41.7797         30
  41.9654         26
  42.1512         23
  42.3370         25
  42.5227         27
  42.7085         24
  42.8942         25
  43.0800         30
  43.2657         40
  43.4515         33
  43.6372         30
  43.8230         34
  44.0088         30
  44.1945         28
  44.3803         30
  44.5660         27
  44.7518         35
  44.9375         21
  45.1233         27
  45.3091         20
  45.4948         19
  45.6806         22
  45.8663         24
  46.0521         18
  46.2378         28
  46.4236         26
  46.6093         29
  46.7951         14
  46.9809         26
  47.1666         21
  47.3524         23
  47.5381         28
  47.7239         22
  47.9096         21
  48.0954         21
  48.2811         28
  48.4669         19
  48.6527         21
  48.8384         28
  49.0242         34
  49.2099         29
  49.3957         30
  49.5814         16
  49.7672         24
  49.9530         18
  50.1387         25
  50.3245         28
  50.5102         22
  50.6960         21
  50.8817         25
  51.0675         21
  51.2532         20
  51.4390         30
  51.6248         30
  51.8105         24
  51.9963         19
  52.1820         21
  52.3678         29
  52.5535         21
  52.7393         20
  52.9250         18
  53.1108         22
  53.2966         17
  53.4823         17
  53.6681         19
  53.8538         26
  54.0396         21
  54.2253         18
  54.4111         24
  54.5969         23
  54.7826         18
  54.9684         18
  55.1541         24
  55.3399         22
  55.5256         15
  55.7114         21
  55.8971         20
  56.0829         17
  56.2687         22
  56.4544         26
  56.6402         31
  56.8259         17
  57.0117         26
  57.1974         11
  57.3832         27
  57.5689         22
  57.7547         24
  57.9405         18
  58.1262         20
  58.3120         23
  58.4977         29
  58.6835         24
  58.8692         23
  59.0550         26
  59.2408         22
  59.4265         19
  59.6123         24
  59.7980         25
  59.9838         22
  60.0024         16