File: notebooks/data/xrd_data/ML_20220718_25_SJD_4_LaB6-2min.csv
;,2THETA,
5.0000,143
5.1858,107
5.3715,106
5.5573,125
5.7430,101
5.9288,91
6.1145,99
6.3003,94
6.4860,74
6.6718,97
6.8576,83
7.0433,93
7.2291,88
7.4148,84
7.6006,83
7.7863,97
7.9721,122
8.1579,79
8.3436,91
8.5294,103
8.7151,126
8.9009,101
9.0866,115
9.2724,95
9.4581,106
9.6439,108
9.8297,118
10.0154,124
10.2012,97
10.3869,117
10.5727,104
10.7584,142
10.9442,102
11.1299,101
11.3157,121
11.5015,112
11.6872,114
11.8730,121
12.0587,122
12.2445,108
12.4302,104
12.6160,111
12.8018,93
12.9875,120
13.1733,105
13.3590,95
13.5448,103
13.7305,116
13.9163,92
14.1020,100
14.2878,94
14.4736,97
14.6593,91
14.8451,79
15.0308,98
15.2166,73
15.4023,97
15.5881,90
15.7738,88
15.9596,88
16.1454,67
16.3311,87
16.5169,63
16.7026,100
16.8884,90
17.0741,90
17.2599,77
17.4457,86
17.6314,103
17.8172,78
18.0029,80
18.1887,92
18.3744,94
18.5602,82
18.7459,84
18.9317,83
19.1175,77
19.3032,90
19.4890,91
19.6747,77
19.8605,69
20.0462,80
20.2320,84
20.4177,83
20.6035,103
20.7893,79
20.9750,86
21.1608,96
21.3465,296
21.5323,103
21.7180,85
21.9038,108
22.0896,99
22.2753,85
22.4611,95
22.6468,107
22.8326,94
23.0183,99
23.2041,91
23.3898,111
23.5756,104
23.7614,106
23.9471,105
24.1329,92
24.3186,125
24.5044,100
24.6901,112
24.8759,103
25.0616,85
25.2474,107
25.4332,98
25.6189,81
25.8047,102
25.9904,110
26.1762,102
26.3619,104
26.5477,102
26.7335,101
26.9192,92
27.1050,112
27.2907,122
27.4765,95
27.6622,67
27.8480,83
28.0337,92
28.2195,68
28.4053,78
28.5910,64
28.7768,94
28.9625,73
29.1483,92
29.3340,88
29.5198,87
29.7055,82
29.8913,81
30.0771,76
30.2628,77
30.4486,135
30.6343,82
30.8201,60
31.0058,78
31.1916,75
31.3774,70
31.5631,80
31.7489,64
31.9346,51
32.1204,59
32.3061,62
32.4919,63
32.6776,60
32.8634,58
33.0492,73
33.2349,46
33.4207,60
33.6064,66
33.7922,67
33.9779,53
34.1637,48
34.3494,46
34.5352,52
34.7210,74
34.9067,53
35.0925,50
35.2782,45
35.4640,36
35.6497,49
35.8355,43
36.0213,33
36.2070,58
36.3928,52
36.5785,53
36.7643,41
36.9500,41
37.1358,59
37.3215,52
37.5073,63
37.6931,47
37.8788,34
38.0646,41
38.2503,55
38.4361,53
38.6218,44
38.8076,45
38.9933,40
39.1791,34
39.3649,33
39.5506,40
39.7364,45
39.9221,41
40.1079,37
40.2936,35
40.4794,38
40.6652,36
40.8509,35
41.0367,38
41.2224,36
41.4082,36
41.5939,34
41.7797,31
41.9654,34
42.1512,30
42.3370,30
42.5227,41
42.7085,37
42.8942,26
43.0800,32
43.2657,46
43.4515,41
43.6372,37
43.8230,23
44.0088,36
44.1945,36
44.3803,38
44.5660,32
44.7518,44
44.9375,38
45.1233,41
45.3091,37
45.4948,34
45.6806,30
45.8663,33
46.0521,38
46.2378,24
46.4236,46
46.6093,33
46.7951,44
46.9809,29
47.1666,36
47.3524,26
47.5381,30
47.7239,33
47.9096,30
48.0954,27
48.2811,27
48.4669,31
48.6527,28
48.8384,35
49.0242,48
49.2099,41
49.3957,39
49.5814,27
49.7672,38
49.9530,24
50.1387,40
50.3245,34
50.5102,27
50.6960,29
50.8817,27
51.0675,30
51.2532,32
51.4390,29
51.6248,23
51.8105,30
51.9963,28
52.1820,29
52.3678,38
52.5535,30
52.7393,34
52.9250,33
53.1108,30
53.2966,30
53.4823,21
53.6681,27
53.8538,21
54.0396,36
54.2253,29
54.4111,27
54.5969,29
54.7826,17
54.9684,29
55.1541,24
55.3399,27
55.5256,34
55.7114,32
55.8971,28
56.0829,29
56.2687,26
56.4544,40
56.6402,32
56.8259,23
57.0117,26
57.1974,33
57.3832,24
57.5689,20
57.7547,23
57.9405,32
58.1262,27
58.3120,27
58.4977,33
58.6835,41
58.8692,30
59.0550,21
59.2408,32
59.4265,24
59.6123,26
59.7980,33
59.9838,32
60.0024,42