File: notebooks/data/xrd_data/ML_20220718_56_SJD_4_LaB6-2min.csv
;,2THETA,
5.0000,127
5.1858,118
5.3715,110
5.5573,120
5.7430,118
5.9288,97
6.1145,99
6.3003,78
6.4860,78
6.6718,87
6.8576,75
7.0433,70
7.2291,81
7.4148,73
7.6006,101
7.7863,86
7.9721,104
8.1579,92
8.3436,101
8.5294,86
8.7151,113
8.9009,106
9.0866,90
9.2724,119
9.4581,118
9.6439,94
9.8297,126
10.0154,120
10.2012,111
10.3869,112
10.5727,128
10.7584,101
10.9442,110
11.1299,105
11.3157,130
11.5015,113
11.6872,131
11.8730,126
12.0587,120
12.2445,120
12.4302,90
12.6160,117
12.8018,117
12.9875,83
13.1733,96
13.3590,103
13.5448,93
13.7305,73
13.9163,78
14.1020,77
14.2878,79
14.4736,82
14.6593,86
14.8451,81
15.0308,83
15.2166,94
15.4023,96
15.5881,81
15.7738,88
15.9596,73
16.1454,73
16.3311,84
16.5169,76
16.7026,81
16.8884,88
17.0741,82
17.2599,76
17.4457,78
17.6314,66
17.8172,86
18.0029,77
18.1887,77
18.3744,69
18.5602,87
18.7459,77
18.9317,90
19.1175,77
19.3032,77
19.4890,94
19.6747,92
19.8605,91
20.0462,88
20.2320,86
20.4177,83
20.6035,95
20.7893,91
20.9750,91
21.1608,102
21.3465,253
21.5323,94
21.7180,103
21.9038,98
22.0896,82
22.2753,75
22.4611,100
22.6468,113
22.8326,120
23.0183,109
23.2041,92
23.3898,102
23.5756,85
23.7614,99
23.9471,105
24.1329,111
24.3186,96
24.5044,101
24.6901,95
24.8759,97
25.0616,91
25.2474,101
25.4332,85
25.6189,82
25.8047,99
25.9904,112
26.1762,91
26.3619,89
26.5477,106
26.7335,88
26.9192,98
27.1050,105
27.2907,123
27.4765,81
27.6622,95
27.8480,87
28.0337,88
28.2195,79
28.4053,84
28.5910,80
28.7768,73
28.9625,96
29.1483,78
29.3340,75
29.5198,80
29.7055,86
29.8913,67
30.0771,88
30.2628,66
30.4486,116
30.6343,72
30.8201,70
31.0058,73
31.1916,78
31.3774,73
31.5631,57
31.7489,68
31.9346,76
32.1204,68
32.3061,83
32.4919,81
32.6776,62
32.8634,52
33.0492,72
33.2349,58
33.4207,58
33.6064,58
33.7922,48
33.9779,48
34.1637,49
34.3494,60
34.5352,50
34.7210,66
34.9067,68
35.0925,55
35.2782,51
35.4640,50
35.6497,54
35.8355,43
36.0213,44
36.2070,40
36.3928,44
36.5785,36
36.7643,40
36.9500,40
37.1358,38
37.3215,49
37.5073,61
37.6931,40
37.8788,51
38.0646,32
38.2503,47
38.4361,32
38.6218,40
38.8076,39
38.9933,31
39.1791,26
39.3649,47
39.5506,43
39.7364,50
39.9221,47
40.1079,29
40.2936,40
40.4794,41
40.6652,26
40.8509,33
41.0367,41
41.2224,39
41.4082,39
41.5939,41
41.7797,47
41.9654,38
42.1512,29
42.3370,22
42.5227,36
42.7085,41
42.8942,33
43.0800,54
43.2657,39
43.4515,38
43.6372,44
43.8230,29
44.0088,48
44.1945,44
44.3803,31
44.5660,29
44.7518,42
44.9375,31
45.1233,25
45.3091,43
45.4948,29
45.6806,27
45.8663,41
46.0521,33
46.2378,43
46.4236,34
46.6093,41
46.7951,29
46.9809,27
47.1666,43
47.3524,33
47.5381,30
47.7239,28
47.9096,25
48.0954,21
48.2811,32
48.4669,23
48.6527,23
48.8384,30
49.0242,32
49.2099,37
49.3957,25
49.5814,32
49.7672,33
49.9530,35
50.1387,24
50.3245,24
50.5102,31
50.6960,27
50.8817,35
51.0675,30
51.2532,29
51.4390,41
51.6248,27
51.8105,36
51.9963,32
52.1820,27
52.3678,36
52.5535,20
52.7393,25
52.9250,29
53.1108,38
53.2966,25
53.4823,23
53.6681,32
53.8538,35
54.0396,37
54.2253,30
54.4111,23
54.5969,27
54.7826,24
54.9684,27
55.1541,22
55.3399,31
55.5256,35
55.7114,31
55.8971,24
56.0829,23
56.2687,29
56.4544,32
56.6402,26
56.8259,29
57.0117,24
57.1974,23
57.3832,36
57.5689,23
57.7547,18
57.9405,28
58.1262,27
58.3120,29
58.4977,27
58.6835,23
58.8692,22
59.0550,30
59.2408,28
59.4265,28
59.6123,24
59.7980,26
59.9838,26
60.0024,33