File: notebooks/data/xrd_data/ML_20220718_59_SJD_4_LaB6-4min.csv
;,2THETA,
5.0000,275
5.1858,223
5.3715,230
5.5573,209
5.7430,208
5.9288,225
6.1145,196
6.3003,195
6.4860,182
6.6718,150
6.8576,160
7.0433,164
7.2291,154
7.4148,141
7.6006,168
7.7863,191
7.9721,176
8.1579,175
8.3436,214
8.5294,227
8.7151,205
8.9009,225
9.0866,202
9.2724,231
9.4581,192
9.6439,210
9.8297,219
10.0154,231
10.2012,236
10.3869,230
10.5727,245
10.7584,236
10.9442,259
11.1299,222
11.3157,223
11.5015,239
11.6872,203
11.8730,218
12.0587,230
12.2445,227
12.4302,251
12.6160,202
12.8018,170
12.9875,202
13.1733,219
13.3590,197
13.5448,212
13.7305,195
13.9163,185
14.1020,196
14.2878,166
14.4736,191
14.6593,165
14.8451,176
15.0308,160
15.2166,174
15.4023,171
15.5881,196
15.7738,138
15.9596,191
16.1454,169
16.3311,156
16.5169,169
16.7026,150
16.8884,142
17.0741,174
17.2599,165
17.4457,151
17.6314,166
17.8172,158
18.0029,162
18.1887,156
18.3744,169
18.5602,171
18.7459,176
18.9317,180
19.1175,162
19.3032,179
19.4890,162
19.6747,173
19.8605,203
20.0462,190
20.2320,174
20.4177,189
20.6035,190
20.7893,193
20.9750,221
21.1608,267
21.3465,512
21.5323,226
21.7180,177
21.9038,201
22.0896,183
22.2753,186
22.4611,208
22.6468,178
22.8326,205
23.0183,187
23.2041,185
23.3898,212
23.5756,187
23.7614,200
23.9471,217
24.1329,224
24.3186,230
24.5044,222
24.6901,194
24.8759,180
25.0616,201
25.2474,204
25.4332,191
25.6189,183
25.8047,184
25.9904,185
26.1762,181
26.3619,180
26.5477,185
26.7335,199
26.9192,177
27.1050,194
27.2907,212
27.4765,191
27.6622,178
27.8480,172
28.0337,171
28.2195,183
28.4053,174
28.5910,159
28.7768,176
28.9625,169
29.1483,153
29.3340,156
29.5198,153
29.7055,163
29.8913,154
30.0771,183
30.2628,185
30.4486,260
30.6343,158
30.8201,134
31.0058,141
31.1916,152
31.3774,146
31.5631,132
31.7489,120
31.9346,135
32.1204,121
32.3061,134
32.4919,159
32.6776,147
32.8634,129
33.0492,128
33.2349,120
33.4207,124
33.6064,110
33.7922,133
33.9779,115
34.1637,121
34.3494,116
34.5352,113
34.7210,164
34.9067,104
35.0925,120
35.2782,89
35.4640,96
35.6497,98
35.8355,97
36.0213,113
36.2070,98
36.3928,90
36.5785,90
36.7643,84
36.9500,84
37.1358,79
37.3215,106
37.5073,133
37.6931,92
37.8788,76
38.0646,111
38.2503,85
38.4361,94
38.6218,85
38.8076,75
38.9933,90
39.1791,84
39.3649,70
39.5506,74
39.7364,80
39.9221,101
40.1079,80
40.2936,71
40.4794,79
40.6652,66
40.8509,76
41.0367,85
41.2224,77
41.4082,82
41.5939,72
41.7797,73
41.9654,64
42.1512,74
42.3370,73
42.5227,81
42.7085,72
42.8942,87
43.0800,70
43.2657,96
43.4515,89
43.6372,102
43.8230,93
44.0088,58
44.1945,69
44.3803,68
44.5660,89
44.7518,74
44.9375,71
45.1233,71
45.3091,50
45.4948,81
45.6806,71
45.8663,65
46.0521,76
46.2378,70
46.4236,72
46.6093,65
46.7951,71
46.9809,72
47.1666,61
47.3524,56
47.5381,58
47.7239,69
47.9096,58
48.0954,71
48.2811,60
48.4669,76
48.6527,65
48.8384,70
49.0242,75
49.2099,65
49.3957,63
49.5814,50
49.7672,60
49.9530,57
50.1387,58
50.3245,59
50.5102,85
50.6960,65
50.8817,55
51.0675,57
51.2532,57
51.4390,64
51.6248,58
51.8105,72
51.9963,66
52.1820,64
52.3678,57
52.5535,69
52.7393,63
52.9250,53
53.1108,60
53.2966,68
53.4823,58
53.6681,60
53.8538,58
54.0396,71
54.2253,56
54.4111,58
54.5969,52
54.7826,71
54.9684,54
55.1541,50
55.3399,49
55.5256,57
55.7114,51
55.8971,70
56.0829,57
56.2687,58
56.4544,55
56.6402,48
56.8259,61
57.0117,67
57.1974,54
57.3832,50
57.5689,65
57.7547,46
57.9405,50
58.1262,66
58.3120,59
58.4977,62
58.6835,50
58.8692,47
59.0550,67
59.2408,60
59.4265,60
59.6123,60
59.7980,37
59.9838,63
60.0024,66