File: notebooks/data/xrd_data/ML_20220718_35_SJD_4_LaB6-2min.uxd
; (content of file Y:\Sam\Apurva-07-20-2022\puck4\ML_20220718_35_SJD_0_LaB6-2min.raw)
_FILEVERSION = 3
_SAMPLE = ML_20220718_35_SJD_0_LaB6-2min
_+SAMPLE =
_SITE = USA
_USER = Administrator
_GONIOMETER_CODE = 20
; Goniometer : D8 theta/2theta, stage : Unknown
_ATTACHMENTS_CODE = 0
_GONIOMETER_RADIUS = 200.5
_FIXED_DIVSLIT = 0.6
_FIXED_SAMPLESLIT = 0
_SOLLER_SLITS = 2
_FIXED_DETSLIT = 9.55
_MONOCHROMATOR = 0
; Incident beam monochromator : None
_SOLLER_SLITS_2 = N
_THIN_FILM = N
_BETA_FILTER = Y
_FIXED_ANTISLIT = 5.89
_ANALYZER_CODE = 0
; Received beam analyzer : None
_DATEMEASURED = "26-Jul-2022 09:01:39"
_WL_UNIT = A
_WL1 = 1.5406
_WL2 = 1.54439
_WL3 = 1.39222
_WLRATIO = 0.5
_ANODE = Cu
_V4_INF_CREATOR = XRDWizard
_V4_INF_CREATOR_VERSION = V2.9.0.22
_V4_INF_WIZARD_VERSION = V2.9.0.22
_V4_INF_WIZARD_ADDINS = V2.9.0.22
_V4_INF_WIZARD_DOCTYPE = XRD
_V4_INF_OSUSER = McQueenLab
_V4_INF_USER = Administrator
_V4_INF_SITE = USA
_V4_INF_SAMPLEID = ML_20220718_35_SJD_0_LaB6-2min

; Data for range 1
_DRIVE = COUPLED
_STEPTIME = 5.64
_STEPSIZE = 0.0185756
_STEPMODE = C
_START = 5
_THETA = 2.5
_2THETA = 5
_KHI = 0
_PHI = 0
_X = 0
_Y = 0
_Z = 0
_DETECTOR = 5
; Detector type : Unknown
_DETECTORSLIT = unkn
_AUX1 = 0
_AUX2 = 0
_AUX3 = 0
_TIMESTARTED = 15
_TEMP_RATE = -1
_TEMP_DELAY = -1
_KV = 40
_MA = 40
_RANGE_WL = 1.5406
_3DPLANE = 0
_V4_ADDITIONALDETECTOR = 257
_V4_PSD2THETA = 3.4189
_V4_PSDCHANNEL1 = 0
_V4_PSDAPERTURE = 12.68
_V4_PSDTYPE = 5
_V4_PSDFIXED = 0
_V4_COUNTERS_MASK = 4096
_V4_DRIVES_MASK = 0
_V4_ENCODERS_MASK = 0
_2THETACOUNTS = 1
; 2THETA  PSD
   5.0000        135
   5.1858         93
   5.3715        115
   5.5573        104
   5.7430         95
   5.9288         96
   6.1145         99
   6.3003         91
   6.4860        105
   6.6718         89
   6.8576         88
   7.0433         66
   7.2291         82
   7.4148         79
   7.6006         81
   7.7863         94
   7.9721        112
   8.1579         87
   8.3436        104
   8.5294         89
   8.7151        108
   8.9009        104
   9.0866         95
   9.2724        100
   9.4581        110
   9.6439        107
   9.8297        115
  10.0154        123
  10.2012        118
  10.3869        123
  10.5727        145
  10.7584        100
  10.9442        115
  11.1299        114
  11.3157        115
  11.5015        115
  11.6872        118
  11.8730        135
  12.0587        125
  12.2445        117
  12.4302         96
  12.6160        130
  12.8018        100
  12.9875         99
  13.1733        103
  13.3590        124
  13.5448         97
  13.7305         86
  13.9163         91
  14.1020         90
  14.2878         97
  14.4736         65
  14.6593         82
  14.8451         53
  15.0308         95
  15.2166         78
  15.4023         85
  15.5881         98
  15.7738         88
  15.9596        109
  16.1454         95
  16.3311         89
  16.5169         86
  16.7026         83
  16.8884         82
  17.0741         73
  17.2599         80
  17.4457         71
  17.6314         86
  17.8172         94
  18.0029         78
  18.1887         76
  18.3744         92
  18.5602         70
  18.7459         75
  18.9317         81
  19.1175         95
  19.3032         73
  19.4890         92
  19.6747         84
  19.8605         86
  20.0462         77
  20.2320         90
  20.4177         80
  20.6035         82
  20.7893         96
  20.9750         88
  21.1608        116
  21.3465        240
  21.5323         89
  21.7180         77
  21.9038         96
  22.0896         79
  22.2753        116
  22.4611        104
  22.6468        104
  22.8326         78
  23.0183         98
  23.2041         91
  23.3898         84
  23.5756         90
  23.7614         96
  23.9471        118
  24.1329         82
  24.3186        104
  24.5044         82
  24.6901         84
  24.8759        104
  25.0616        105
  25.2474        104
  25.4332         94
  25.6189         88
  25.8047         92
  25.9904        107
  26.1762         96
  26.3619        120
  26.5477        111
  26.7335        102
  26.9192         97
  27.1050        105
  27.2907         97
  27.4765         77
  27.6622         96
  27.8480         88
  28.0337        103
  28.2195         94
  28.4053         83
  28.5910         84
  28.7768         90
  28.9625         88
  29.1483         76
  29.3340         94
  29.5198         72
  29.7055         61
  29.8913         90
  30.0771         79
  30.2628         81
  30.4486        131
  30.6343         80
  30.8201         75
  31.0058         83
  31.1916         61
  31.3774         72
  31.5631         75
  31.7489         76
  31.9346         76
  32.1204         69
  32.3061         52
  32.4919         70
  32.6776         68
  32.8634         62
  33.0492         65
  33.2349         69
  33.4207         65
  33.6064         50
  33.7922         62
  33.9779         62
  34.1637         51
  34.3494         55
  34.5352         55
  34.7210         66
  34.9067         69
  35.0925         66
  35.2782         58
  35.4640         43
  35.6497         58
  35.8355         60
  36.0213         39
  36.2070         52
  36.3928         53
  36.5785         50
  36.7643         42
  36.9500         53
  37.1358         50
  37.3215         42
  37.5073         56
  37.6931         40
  37.8788         41
  38.0646         41
  38.2503         40
  38.4361         41
  38.6218         31
  38.8076         55
  38.9933         36
  39.1791         50
  39.3649         41
  39.5506         31
  39.7364         36
  39.9221         32
  40.1079         34
  40.2936         35
  40.4794         37
  40.6652         33
  40.8509         37
  41.0367         27
  41.2224         41
  41.4082         43
  41.5939         26
  41.7797         36
  41.9654         31
  42.1512         41
  42.3370         41
  42.5227         35
  42.7085         49
  42.8942         35
  43.0800         30
  43.2657         45
  43.4515         52
  43.6372         69
  43.8230         40
  44.0088         38
  44.1945         35
  44.3803         40
  44.5660         38
  44.7518         47
  44.9375         36
  45.1233         31
  45.3091         31
  45.4948         33
  45.6806         27
  45.8663         48
  46.0521         33
  46.2378         34
  46.4236         36
  46.6093         18
  46.7951         26
  46.9809         32
  47.1666         32
  47.3524         39
  47.5381         31
  47.7239         32
  47.9096         29
  48.0954         37
  48.2811         22
  48.4669         32
  48.6527         35
  48.8384         32
  49.0242         39
  49.2099         35
  49.3957         23
  49.5814         28
  49.7672         29
  49.9530         34
  50.1387         35
  50.3245         37
  50.5102         23
  50.6960         34
  50.8817         33
  51.0675         30
  51.2532         34
  51.4390         31
  51.6248         29
  51.8105         37
  51.9963         27
  52.1820         27
  52.3678         22
  52.5535         29
  52.7393         27
  52.9250         39
  53.1108         18
  53.2966         18
  53.4823         40
  53.6681         33
  53.8538         35
  54.0396         36
  54.2253         37
  54.4111         34
  54.5969         30
  54.7826         31
  54.9684         33
  55.1541         26
  55.3399         23
  55.5256         24
  55.7114         26
  55.8971         25
  56.0829         27
  56.2687         26
  56.4544         28
  56.6402         27
  56.8259         25
  57.0117         34
  57.1974         28
  57.3832         35
  57.5689         31
  57.7547         33
  57.9405         34
  58.1262         19
  58.3120         29
  58.4977         31
  58.6835         33
  58.8692         23
  59.0550         28
  59.2408         26
  59.4265         30
  59.6123         32
  59.7980         27
  59.9838         25
  60.0024         25