File: notebooks/data/xrd_data/ML_20220720_24_SJD_4_LaB6-1min.uxd
; (content of file Y:\Sam\Apurva-07-20-2022\puck2\ML_20220720_24_SJD_0_LaB6-1min.raw)
_FILEVERSION = 3
_SAMPLE = ML_20220720_24_SJD_0_LaB6-1min
_+SAMPLE =
_SITE = USA
_USER = Administrator
_GONIOMETER_CODE = 20
; Goniometer : D8 theta/2theta, stage : Unknown
_ATTACHMENTS_CODE = 0
_GONIOMETER_RADIUS = 200.5
_FIXED_DIVSLIT = 0.6
_FIXED_SAMPLESLIT = 0
_SOLLER_SLITS = 2
_FIXED_DETSLIT = 9.55
_MONOCHROMATOR = 0
; Incident beam monochromator : None
_SOLLER_SLITS_2 = N
_THIN_FILM = N
_BETA_FILTER = Y
_FIXED_ANTISLIT = 5.89
_ANALYZER_CODE = 0
; Received beam analyzer : None
_DATEMEASURED = "25-Jul-2022 18:31:09"
_WL_UNIT = A
_WL1 = 1.5406
_WL2 = 1.54439
_WL3 = 1.39222
_WLRATIO = 0.5
_ANODE = Cu
_V4_INF_CREATOR = XRDWizard
_V4_INF_CREATOR_VERSION = V2.9.0.22
_V4_INF_WIZARD_VERSION = V2.9.0.22
_V4_INF_WIZARD_ADDINS = V2.9.0.22
_V4_INF_WIZARD_DOCTYPE = XRD
_V4_INF_OSUSER = McQueenLab
_V4_INF_USER = Administrator
_V4_INF_SITE = USA
_V4_INF_SAMPLEID = ML_20220720_24_SJD_0_LaB6-1min

; Data for range 1
_DRIVE = COUPLED
_STEPTIME = 4.23
_STEPSIZE = 0.0185756
_STEPMODE = C
_START = 5
_THETA = 2.5
_2THETA = 5
_KHI = 0
_PHI = 0
_X = 0
_Y = 0
_Z = 0
_DETECTOR = 5
; Detector type : Unknown
_DETECTORSLIT = unkn
_AUX1 = 0
_AUX2 = 0
_AUX3 = 0
_TIMESTARTED = 14
_TEMP_RATE = -1
_TEMP_DELAY = -1
_KV = 40
_MA = 40
_RANGE_WL = 1.5406
_3DPLANE = 0
_V4_ADDITIONALDETECTOR = 257
_V4_PSD2THETA = 3.3766
_V4_PSDCHANNEL1 = 0
_V4_PSDAPERTURE = 12.68
_V4_PSDTYPE = 5
_V4_PSDFIXED = 0
_V4_COUNTERS_MASK = 4096
_V4_DRIVES_MASK = 0
_V4_ENCODERS_MASK = 0
_2THETACOUNTS = 1
; 2THETA  PSD
   5.0000         85
   5.1858         82
   5.3715         76
   5.5573         69
   5.7430         74
   5.9288         84
   6.1145         84
   6.3003         76
   6.4860         64
   6.6718         61
   6.8576         58
   7.0433         54
   7.2291         70
   7.4148         52
   7.6006         56
   7.7863         50
   7.9721         72
   8.1579         62
   8.3436         64
   8.5294         98
   8.7151         71
   8.9009         89
   9.0866         92
   9.2724         96
   9.4581         83
   9.6439         74
   9.8297         84
  10.0154         93
  10.2012         96
  10.3869         93
  10.5727         81
  10.7584         81
  10.9442         89
  11.1299         83
  11.3157         87
  11.5015         86
  11.6872         69
  11.8730         92
  12.0587         90
  12.2445         85
  12.4302         81
  12.6160         81
  12.8018         75
  12.9875         78
  13.1733         81
  13.3590         69
  13.5448         81
  13.7305         68
  13.9163         74
  14.1020         64
  14.2878         68
  14.4736         65
  14.6593         60
  14.8451         53
  15.0308         56
  15.2166         64
  15.4023         64
  15.5881         63
  15.7738         73
  15.9596         59
  16.1454         63
  16.3311         63
  16.5169         59
  16.7026         62
  16.8884         50
  17.0741         61
  17.2599         64
  17.4457         63
  17.6314         58
  17.8172         59
  18.0029         59
  18.1887         52
  18.3744         64
  18.5602         64
  18.7459         64
  18.9317         65
  19.1175         50
  19.3032         61
  19.4890         67
  19.6747         63
  19.8605         77
  20.0462         55
  20.2320         66
  20.4177         52
  20.6035         72
  20.7893         59
  20.9750         80
  21.1608         76
  21.3465        174
  21.5323         78
  21.7180         80
  21.9038         75
  22.0896         93
  22.2753         70
  22.4611         72
  22.6468         63
  22.8326         70
  23.0183         77
  23.2041         64
  23.3898         66
  23.5756         67
  23.7614         84
  23.9471         83
  24.1329         86
  24.3186         78
  24.5044         75
  24.6901         71
  24.8759         68
  25.0616         75
  25.2474         64
  25.4332         62
  25.6189         51
  25.8047         87
  25.9904         70
  26.1762         68
  26.3619         65
  26.5477         78
  26.7335         71
  26.9192         76
  27.1050         81
  27.2907         71
  27.4765         80
  27.6622         74
  27.8480         55
  28.0337         63
  28.2195         56
  28.4053         54
  28.5910         52
  28.7768         54
  28.9625         70
  29.1483         69
  29.3340         64
  29.5198         57
  29.7055         59
  29.8913         53
  30.0771         63
  30.2628         71
  30.4486         96
  30.6343         66
  30.8201         55
  31.0058         63
  31.1916         56
  31.3774         50
  31.5631         54
  31.7489         36
  31.9346         41
  32.1204         43
  32.3061         54
  32.4919         45
  32.6776         45
  32.8634         51
  33.0492         43
  33.2349         49
  33.4207         47
  33.6064         37
  33.7922         31
  33.9779         44
  34.1637         38
  34.3494         39
  34.5352         46
  34.7210         43
  34.9067         45
  35.0925         48
  35.2782         30
  35.4640         42
  35.6497         28
  35.8355         44
  36.0213         36
  36.2070         42
  36.3928         30
  36.5785         30
  36.7643         33
  36.9500         35
  37.1358         44
  37.3215         38
  37.5073         42
  37.6931         22
  37.8788         26
  38.0646         33
  38.2503         33
  38.4361         28
  38.6218         33
  38.8076         29
  38.9933         26
  39.1791         38
  39.3649         23
  39.5506         35
  39.7364         37
  39.9221         34
  40.1079         31
  40.2936         29
  40.4794         24
  40.6652         27
  40.8509         26
  41.0367         32
  41.2224         23
  41.4082         38
  41.5939         33
  41.7797         28
  41.9654         25
  42.1512         24
  42.3370         27
  42.5227         22
  42.7085         30
  42.8942         24
  43.0800         29
  43.2657         32
  43.4515         34
  43.6372         37
  43.8230         20
  44.0088         26
  44.1945         21
  44.3803         26
  44.5660         32
  44.7518         27
  44.9375         25
  45.1233         24
  45.3091         20
  45.4948         21
  45.6806         29
  45.8663         23
  46.0521         32
  46.2378         23
  46.4236         24
  46.6093         18
  46.7951         30
  46.9809         25
  47.1666         20
  47.3524         25
  47.5381         29
  47.7239         22
  47.9096         23
  48.0954         25
  48.2811         15
  48.4669         23
  48.6527         21
  48.8384         23
  49.0242         26
  49.2099         21
  49.3957         25
  49.5814         14
  49.7672         24
  49.9530         25
  50.1387         25
  50.3245         14
  50.5102         30
  50.6960         13
  50.8817         19
  51.0675         19
  51.2532         23
  51.4390         24
  51.6248         29
  51.8105         28
  51.9963         20
  52.1820         25
  52.3678         24
  52.5535         14
  52.7393         15
  52.9250         25
  53.1108         18
  53.2966         26
  53.4823         14
  53.6681         22
  53.8538         20
  54.0396         23
  54.2253         16
  54.4111         24
  54.5969         20
  54.7826         23
  54.9684         20
  55.1541         18
  55.3399         28
  55.5256         24
  55.7114         27
  55.8971         18
  56.0829         22
  56.2687         22
  56.4544         29
  56.6402         21
  56.8259         16
  57.0117         18
  57.1974         26
  57.3832         16
  57.5689         19
  57.7547         19
  57.9405         16
  58.1262         23
  58.3120         21
  58.4977         16
  58.6835         15
  58.8692         16
  59.0550         18
  59.2408         24
  59.4265         25
  59.6123         18
  59.7980         20
  59.9838         24
  60.0024         22