File: notebooks/data/xrd_data/ML_20220720_6_SJD_4_LaB6-1min.csv
;,2THETA,
5.0000,89
5.1858,97
5.3715,90
5.5573,108
5.7430,64
5.9288,67
6.1145,74
6.3003,51
6.4860,64
6.6718,72
6.8576,56
7.0433,68
7.2291,54
7.4148,59
7.6006,73
7.7863,65
7.9721,63
8.1579,78
8.3436,72
8.5294,73
8.7151,73
8.9009,71
9.0866,81
9.2724,71
9.4581,76
9.6439,72
9.8297,90
10.0154,91
10.2012,66
10.3869,99
10.5727,80
10.7584,89
10.9442,76
11.1299,88
11.3157,68
11.5015,73
11.6872,77
11.8730,73
12.0587,75
12.2445,91
12.4302,61
12.6160,77
12.8018,86
12.9875,67
13.1733,64
13.3590,73
13.5448,77
13.7305,59
13.9163,50
14.1020,63
14.2878,62
14.4736,57
14.6593,75
14.8451,64
15.0308,53
15.2166,65
15.4023,60
15.5881,66
15.7738,67
15.9596,50
16.1454,68
16.3311,62
16.5169,67
16.7026,67
16.8884,53
17.0741,71
17.2599,60
17.4457,61
17.6314,51
17.8172,46
18.0029,60
18.1887,54
18.3744,72
18.5602,53
18.7459,63
18.9317,52
19.1175,46
19.3032,67
19.4890,76
19.6747,71
19.8605,67
20.0462,71
20.2320,57
20.4177,77
20.6035,78
20.7893,58
20.9750,63
21.1608,88
21.3465,163
21.5323,75
21.7180,76
21.9038,83
22.0896,80
22.2753,69
22.4611,60
22.6468,79
22.8326,76
23.0183,84
23.2041,68
23.3898,74
23.5756,55
23.7614,63
23.9471,80
24.1329,74
24.3186,77
24.5044,85
24.6901,61
24.8759,83
25.0616,74
25.2474,63
25.4332,67
25.6189,68
25.8047,63
25.9904,56
26.1762,77
26.3619,73
26.5477,57
26.7335,66
26.9192,76
27.1050,69
27.2907,65
27.4765,56
27.6622,57
27.8480,60
28.0337,62
28.2195,55
28.4053,54
28.5910,68
28.7768,67
28.9625,50
29.1483,60
29.3340,55
29.5198,67
29.7055,65
29.8913,65
30.0771,51
30.2628,56
30.4486,95
30.6343,60
30.8201,56
31.0058,53
31.1916,57
31.3774,49
31.5631,44
31.7489,38
31.9346,40
32.1204,38
32.3061,41
32.4919,63
32.6776,36
32.8634,51
33.0492,53
33.2349,60
33.4207,47
33.6064,51
33.7922,48
33.9779,38
34.1637,38
34.3494,37
34.5352,43
34.7210,65
34.9067,46
35.0925,34
35.2782,32
35.4640,31
35.6497,41
35.8355,37
36.0213,30
36.2070,27
36.3928,38
36.5785,27
36.7643,43
36.9500,37
37.1358,41
37.3215,33
37.5073,39
37.6931,27
37.8788,29
38.0646,24
38.2503,24
38.4361,32
38.6218,30
38.8076,35
38.9933,27
39.1791,35
39.3649,51
39.5506,28
39.7364,18
39.9221,38
40.1079,29
40.2936,27
40.4794,30
40.6652,20
40.8509,29
41.0367,28
41.2224,21
41.4082,22
41.5939,26
41.7797,24
41.9654,20
42.1512,22
42.3370,22
42.5227,27
42.7085,18
42.8942,25
43.0800,30
43.2657,42
43.4515,38
43.6372,37
43.8230,34
44.0088,25
44.1945,30
44.3803,31
44.5660,24
44.7518,24
44.9375,33
45.1233,31
45.3091,14
45.4948,19
45.6806,27
45.8663,24
46.0521,23
46.2378,23
46.4236,18
46.6093,21
46.7951,23
46.9809,22
47.1666,24
47.3524,23
47.5381,31
47.7239,19
47.9096,28
48.0954,31
48.2811,25
48.4669,25
48.6527,25
48.8384,18
49.0242,29
49.2099,30
49.3957,29
49.5814,25
49.7672,19
49.9530,31
50.1387,20
50.3245,25
50.5102,27
50.6960,14
50.8817,23
51.0675,21
51.2532,24
51.4390,28
51.6248,18
51.8105,19
51.9963,23
52.1820,22
52.3678,21
52.5535,18
52.7393,31
52.9250,15
53.1108,27
53.2966,19
53.4823,14
53.6681,21
53.8538,22
54.0396,24
54.2253,24
54.4111,20
54.5969,14
54.7826,17
54.9684,24
55.1541,20
55.3399,21
55.5256,23
55.7114,10
55.8971,22
56.0829,22
56.2687,27
56.4544,21
56.6402,21
56.8259,25
57.0117,16
57.1974,18
57.3832,23
57.5689,21
57.7547,15
57.9405,25
58.1262,17
58.3120,22
58.4977,22
58.6835,27
58.8692,19
59.0550,17
59.2408,19
59.4265,19
59.6123,25
59.7980,16
59.9838,12
60.0024,19