File: notebooks/data/xrd_data/ML_20220718_10_SJD_4_LaB6-2min.uxd
; (content of file Y:\Sam\Apurva-07-20-2022\puck4\ML_20220718_10_SJD_0_LaB6-2min.raw)
_FILEVERSION = 3
_SAMPLE = ML_20220718_10_SJD_0_LaB6-2min
_+SAMPLE =
_SITE = USA
_USER = Administrator
_GONIOMETER_CODE = 20
; Goniometer : D8 theta/2theta, stage : Unknown
_ATTACHMENTS_CODE = 0
_GONIOMETER_RADIUS = 200.5
_FIXED_DIVSLIT = 0.6
_FIXED_SAMPLESLIT = 0
_SOLLER_SLITS = 2
_FIXED_DETSLIT = 9.55
_MONOCHROMATOR = 0
; Incident beam monochromator : None
_SOLLER_SLITS_2 = N
_THIN_FILM = N
_BETA_FILTER = Y
_FIXED_ANTISLIT = 5.89
_ANALYZER_CODE = 0
; Received beam analyzer : None
_DATEMEASURED = "26-Jul-2022 10:01:26"
_WL_UNIT = A
_WL1 = 1.5406
_WL2 = 1.54439
_WL3 = 1.39222
_WLRATIO = 0.5
_ANODE = Cu
_V4_INF_CREATOR = XRDWizard
_V4_INF_CREATOR_VERSION = V2.9.0.22
_V4_INF_WIZARD_VERSION = V2.9.0.22
_V4_INF_WIZARD_ADDINS = V2.9.0.22
_V4_INF_WIZARD_DOCTYPE = XRD
_V4_INF_OSUSER = McQueenLab
_V4_INF_USER = Administrator
_V4_INF_SITE = USA
_V4_INF_SAMPLEID = ML_20220718_10_SJD_0_LaB6-2min

; Data for range 1
_DRIVE = COUPLED
_STEPTIME = 5.64
_STEPSIZE = 0.0185756
_STEPMODE = C
_START = 5
_THETA = 2.5
_2THETA = 5
_KHI = 0
_PHI = 0
_X = 0
_Y = 0
_Z = 0
_DETECTOR = 5
; Detector type : Unknown
_DETECTORSLIT = unkn
_AUX1 = 0
_AUX2 = 0
_AUX3 = 0
_TIMESTARTED = 15
_TEMP_RATE = -1
_TEMP_DELAY = -1
_KV = 40
_MA = 40
_RANGE_WL = 1.5406
_3DPLANE = 0
_V4_ADDITIONALDETECTOR = 257
_V4_PSD2THETA = 3.4232
_V4_PSDCHANNEL1 = 0
_V4_PSDAPERTURE = 12.68
_V4_PSDTYPE = 5
_V4_PSDFIXED = 0
_V4_COUNTERS_MASK = 4096
_V4_DRIVES_MASK = 0
_V4_ENCODERS_MASK = 0
_2THETACOUNTS = 1
; 2THETA  PSD
   5.0000        123
   5.1858        107
   5.3715        108
   5.5573        134
   5.7430        103
   5.9288         97
   6.1145        102
   6.3003         83
   6.4860         81
   6.6718         78
   6.8576         86
   7.0433         80
   7.2291         95
   7.4148         78
   7.6006         75
   7.7863        105
   7.9721         89
   8.1579        100
   8.3436         91
   8.5294        110
   8.7151        109
   8.9009        114
   9.0866        103
   9.2724         96
   9.4581        104
   9.6439         98
   9.8297        123
  10.0154        103
  10.2012        114
  10.3869        119
  10.5727        113
  10.7584        118
  10.9442        104
  11.1299        122
  11.3157        106
  11.5015        135
  11.6872        110
  11.8730        135
  12.0587        129
  12.2445         94
  12.4302         98
  12.6160        104
  12.8018         97
  12.9875         93
  13.1733        106
  13.3590         95
  13.5448         91
  13.7305         86
  13.9163         94
  14.1020         90
  14.2878         97
  14.4736         80
  14.6593         88
  14.8451         91
  15.0308         91
  15.2166         79
  15.4023         97
  15.5881         70
  15.7738         89
  15.9596         79
  16.1454         93
  16.3311         67
  16.5169         85
  16.7026         80
  16.8884         64
  17.0741         82
  17.2599         73
  17.4457         89
  17.6314         73
  17.8172         71
  18.0029         78
  18.1887         81
  18.3744         67
  18.5602         93
  18.7459         76
  18.9317        108
  19.1175         88
  19.3032        106
  19.4890         83
  19.6747         85
  19.8605         86
  20.0462         91
  20.2320        101
  20.4177         91
  20.6035         84
  20.7893         85
  20.9750         92
  21.1608        130
  21.3465        252
  21.5323         97
  21.7180        100
  21.9038        105
  22.0896         92
  22.2753         79
  22.4611        110
  22.6468        101
  22.8326         95
  23.0183        100
  23.2041         85
  23.3898        111
  23.5756        110
  23.7614        107
  23.9471         97
  24.1329        106
  24.3186         97
  24.5044         97
  24.6901         98
  24.8759         93
  25.0616         92
  25.2474         88
  25.4332         91
  25.6189         87
  25.8047         83
  25.9904         88
  26.1762         98
  26.3619         92
  26.5477        101
  26.7335         95
  26.9192         92
  27.1050        102
  27.2907        126
  27.4765         89
  27.6622         98
  27.8480         80
  28.0337         81
  28.2195         93
  28.4053         83
  28.5910         92
  28.7768         79
  28.9625         71
  29.1483         88
  29.3340         78
  29.5198         73
  29.7055         73
  29.8913         71
  30.0771         73
  30.2628         88
  30.4486        139
  30.6343         58
  30.8201         68
  31.0058         66
  31.1916         70
  31.3774         70
  31.5631         77
  31.7489         80
  31.9346         58
  32.1204         59
  32.3061         67
  32.4919         66
  32.6776         59
  32.8634         63
  33.0492         76
  33.2349         58
  33.4207         59
  33.6064         57
  33.7922         55
  33.9779         69
  34.1637         60
  34.3494         59
  34.5352         74
  34.7210         58
  34.9067         62
  35.0925         54
  35.2782         57
  35.4640         49
  35.6497         60
  35.8355         42
  36.0213         40
  36.2070         49
  36.3928         47
  36.5785         59
  36.7643         55
  36.9500         48
  37.1358         47
  37.3215         38
  37.5073         45
  37.6931         48
  37.8788         52
  38.0646         50
  38.2503         38
  38.4361         47
  38.6218         42
  38.8076         43
  38.9933         37
  39.1791         37
  39.3649         40
  39.5506         40
  39.7364         47
  39.9221         37
  40.1079         35
  40.2936         38
  40.4794         36
  40.6652         31
  40.8509         45
  41.0367         46
  41.2224         31
  41.4082         51
  41.5939         38
  41.7797         35
  41.9654         30
  42.1512         36
  42.3370         37
  42.5227         33
  42.7085         38
  42.8942         43
  43.0800         28
  43.2657         40
  43.4515         51
  43.6372         48
  43.8230         36
  44.0088         36
  44.1945         36
  44.3803         41
  44.5660         46
  44.7518         48
  44.9375         33
  45.1233         37
  45.3091         30
  45.4948         36
  45.6806         36
  45.8663         49
  46.0521         22
  46.2378         26
  46.4236         43
  46.6093         30
  46.7951         30
  46.9809         28
  47.1666         32
  47.3524         35
  47.5381         41
  47.7239         25
  47.9096         42
  48.0954         43
  48.2811         33
  48.4669         33
  48.6527         49
  48.8384         40
  49.0242         24
  49.2099         26
  49.3957         25
  49.5814         44
  49.7672         29
  49.9530         17
  50.1387         29
  50.3245         34
  50.5102         24
  50.6960         27
  50.8817         22
  51.0675         24
  51.2532         35
  51.4390         35
  51.6248         36
  51.8105         30
  51.9963         30
  52.1820         35
  52.3678         25
  52.5535         23
  52.7393         30
  52.9250         28
  53.1108         32
  53.2966         23
  53.4823         34
  53.6681         39
  53.8538         23
  54.0396         36
  54.2253         32
  54.4111         39
  54.5969         39
  54.7826         30
  54.9684         26
  55.1541         40
  55.3399         26
  55.5256         24
  55.7114         29
  55.8971         20
  56.0829         27
  56.2687         38
  56.4544         31
  56.6402         38
  56.8259         26
  57.0117         21
  57.1974         28
  57.3832         33
  57.5689         28
  57.7547         30
  57.9405         28
  58.1262         32
  58.3120         29
  58.4977         30
  58.6835         24
  58.8692         30
  59.0550         33
  59.2408         29
  59.4265         25
  59.6123         29
  59.7980         22
  59.9838         11
  60.0024         33