File: notebooks/data/xrd_data/ML_20220718_47_SJD_4_LaB6-2min.uxd
; (content of file Y:\Sam\Apurva-07-20-2022\puck4\ML_20220718_47_SJD_4_LaB6-2min.raw)
_FILEVERSION = 3
_SAMPLE = ML_20220718_47_SJD_4_LaB6-2min
_+SAMPLE =
_SITE = USA
_USER = Administrator
_GONIOMETER_CODE = 20
; Goniometer : D8 theta/2theta, stage : Unknown
_ATTACHMENTS_CODE = 0
_GONIOMETER_RADIUS = 200.5
_FIXED_DIVSLIT = 0.6
_FIXED_SAMPLESLIT = 0
_SOLLER_SLITS = 2
_FIXED_DETSLIT = 9.55
_MONOCHROMATOR = 0
; Incident beam monochromator : None
_SOLLER_SLITS_2 = N
_THIN_FILM = N
_BETA_FILTER = Y
_FIXED_ANTISLIT = 5.89
_ANALYZER_CODE = 0
; Received beam analyzer : None
_DATEMEASURED = "26-Jul-2022 12:20:28"
_WL_UNIT = A
_WL1 = 1.5406
_WL2 = 1.54439
_WL3 = 1.39222
_WLRATIO = 0.5
_ANODE = Cu
_V4_INF_CREATOR = XRDWizard
_V4_INF_CREATOR_VERSION = V2.9.0.22
_V4_INF_WIZARD_VERSION = V2.9.0.22
_V4_INF_WIZARD_ADDINS = V2.9.0.22
_V4_INF_WIZARD_DOCTYPE = XRD
_V4_INF_OSUSER = McQueenLab
_V4_INF_USER = Administrator
_V4_INF_SITE = USA
_V4_INF_SAMPLEID = ML_20220718_47_SJD_4_LaB6-2min

; Data for range 1
_DRIVE = COUPLED
_STEPTIME = 5.64
_STEPSIZE = 0.0185756
_STEPMODE = C
_START = 5
_THETA = 2.5
_2THETA = 5
_KHI = 0
_PHI = 0
_X = 0
_Y = 0
_Z = 0
_DETECTOR = 5
; Detector type : Unknown
_DETECTORSLIT = unkn
_AUX1 = 0
_AUX2 = 0
_AUX3 = 0
_TIMESTARTED = 15
_TEMP_RATE = -1
_TEMP_DELAY = -1
_KV = 40
_MA = 40
_RANGE_WL = 1.5406
_3DPLANE = 0
_V4_ADDITIONALDETECTOR = 257
_V4_PSD2THETA = 3.4089
_V4_PSDCHANNEL1 = 0
_V4_PSDAPERTURE = 12.68
_V4_PSDTYPE = 5
_V4_PSDFIXED = 0
_V4_COUNTERS_MASK = 4096
_V4_DRIVES_MASK = 0
_V4_ENCODERS_MASK = 0
_2THETACOUNTS = 1
; 2THETA  PSD
   5.0000        140
   5.1858        110
   5.3715        109
   5.5573        105
   5.7430         93
   5.9288         95
   6.1145         92
   6.3003         98
   6.4860        107
   6.6718         98
   6.8576         77
   7.0433         82
   7.2291         85
   7.4148         73
   7.6006         81
   7.7863         96
   7.9721         90
   8.1579         76
   8.3436        105
   8.5294         90
   8.7151        114
   8.9009        102
   9.0866         93
   9.2724        111
   9.4581        108
   9.6439        116
   9.8297        115
  10.0154        127
  10.2012        120
  10.3869        113
  10.5727        100
  10.7584        118
  10.9442        113
  11.1299        120
  11.3157        113
  11.5015        102
  11.6872        133
  11.8730        116
  12.0587        106
  12.2445        111
  12.4302         91
  12.6160        105
  12.8018        108
  12.9875        104
  13.1733        100
  13.3590         94
  13.5448        108
  13.7305         99
  13.9163         86
  14.1020         87
  14.2878         73
  14.4736         80
  14.6593         86
  14.8451         80
  15.0308         87
  15.2166         83
  15.4023         82
  15.5881         90
  15.7738         80
  15.9596         78
  16.1454         72
  16.3311         85
  16.5169         72
  16.7026         79
  16.8884         80
  17.0741         96
  17.2599         94
  17.4457         75
  17.6314         97
  17.8172         69
  18.0029         77
  18.1887         91
  18.3744         62
  18.5602         72
  18.7459         95
  18.9317         73
  19.1175         69
  19.3032        103
  19.4890         79
  19.6747         94
  19.8605         74
  20.0462         91
  20.2320        106
  20.4177         80
  20.6035         86
  20.7893         98
  20.9750         96
  21.1608        109
  21.3465        222
  21.5323         91
  21.7180         82
  21.9038         91
  22.0896         93
  22.2753        117
  22.4611         93
  22.6468        104
  22.8326        102
  23.0183         90
  23.2041        113
  23.3898         78
  23.5756         85
  23.7614         90
  23.9471         92
  24.1329         97
  24.3186        125
  24.5044        110
  24.6901         96
  24.8759         98
  25.0616         94
  25.2474         90
  25.4332         92
  25.6189        106
  25.8047        108
  25.9904         98
  26.1762         86
  26.3619        109
  26.5477         84
  26.7335         89
  26.9192        104
  27.1050         97
  27.2907        109
  27.4765        101
  27.6622         99
  27.8480         91
  28.0337         76
  28.2195         82
  28.4053         95
  28.5910         79
  28.7768         90
  28.9625         79
  29.1483         65
  29.3340         78
  29.5198         88
  29.7055         83
  29.8913         85
  30.0771         84
  30.2628         80
  30.4486        131
  30.6343         74
  30.8201         65
  31.0058         63
  31.1916         85
  31.3774         70
  31.5631         68
  31.7489         80
  31.9346         64
  32.1204         55
  32.3061         62
  32.4919         79
  32.6776         70
  32.8634         62
  33.0492         80
  33.2349         65
  33.4207         71
  33.6064         61
  33.7922         60
  33.9779         47
  34.1637         61
  34.3494         58
  34.5352         53
  34.7210         78
  34.9067         67
  35.0925         60
  35.2782         62
  35.4640         50
  35.6497         49
  35.8355         52
  36.0213         45
  36.2070         55
  36.3928         35
  36.5785         34
  36.7643         55
  36.9500         51
  37.1358         47
  37.3215         49
  37.5073         59
  37.6931         40
  37.8788         48
  38.0646         38
  38.2503         33
  38.4361         47
  38.6218         39
  38.8076         35
  38.9933         35
  39.1791         41
  39.3649         48
  39.5506         38
  39.7364         42
  39.9221         40
  40.1079         34
  40.2936         41
  40.4794         32
  40.6652         34
  40.8509         38
  41.0367         37
  41.2224         38
  41.4082         42
  41.5939         40
  41.7797         43
  41.9654         25
  42.1512         33
  42.3370         35
  42.5227         39
  42.7085         32
  42.8942         33
  43.0800         39
  43.2657         43
  43.4515         34
  43.6372         51
  43.8230         33
  44.0088         39
  44.1945         43
  44.3803         28
  44.5660         33
  44.7518         33
  44.9375         36
  45.1233         34
  45.3091         46
  45.4948         35
  45.6806         35
  45.8663         39
  46.0521         30
  46.2378         38
  46.4236         45
  46.6093         28
  46.7951         30
  46.9809         38
  47.1666         40
  47.3524         34
  47.5381         33
  47.7239         27
  47.9096         28
  48.0954         25
  48.2811         25
  48.4669         30
  48.6527         35
  48.8384         32
  49.0242         39
  49.2099         32
  49.3957         33
  49.5814         29
  49.7672         30
  49.9530         28
  50.1387         36
  50.3245         33
  50.5102         25
  50.6960         30
  50.8817         39
  51.0675         37
  51.2532         32
  51.4390         38
  51.6248         23
  51.8105         36
  51.9963         27
  52.1820         25
  52.3678         27
  52.5535         29
  52.7393         31
  52.9250         33
  53.1108         24
  53.2966         28
  53.4823         33
  53.6681         26
  53.8538         20
  54.0396         35
  54.2253         32
  54.4111         38
  54.5969         21
  54.7826         32
  54.9684         28
  55.1541         19
  55.3399         23
  55.5256         28
  55.7114         30
  55.8971         29
  56.0829         29
  56.2687         23
  56.4544         29
  56.6402         27
  56.8259         31
  57.0117         26
  57.1974         18
  57.3832         32
  57.5689         27
  57.7547         34
  57.9405         30
  58.1262         31
  58.3120         28
  58.4977         26
  58.6835         21
  58.8692         26
  59.0550         32
  59.2408         29
  59.4265         26
  59.6123         29
  59.7980         25
  59.9838         36
  60.0024         30