File: notebooks/data/xrd_data/ML_20220720_5_SJD_4_LaB6-4min.uxd
; (content of file Y:\Sam\Apurva-07-20-2022\puck2\ML_20220720_5_SJD_0_LaB6-4min.raw)
_FILEVERSION = 3
_SAMPLE = ML_20220720_5_SJD_0_LaB6-4min
_+SAMPLE =
_SITE = USA
_USER = Administrator
_GONIOMETER_CODE = 20
; Goniometer : D8 theta/2theta, stage : Unknown
_ATTACHMENTS_CODE = 0
_GONIOMETER_RADIUS = 200.5
_FIXED_DIVSLIT = 0.6
_FIXED_SAMPLESLIT = 0
_SOLLER_SLITS = 2
_FIXED_DETSLIT = 9.55
_MONOCHROMATOR = 0
; Incident beam monochromator : None
_SOLLER_SLITS_2 = N
_THIN_FILM = N
_BETA_FILTER = Y
_FIXED_ANTISLIT = 5.89
_ANALYZER_CODE = 0
; Received beam analyzer : None
_DATEMEASURED = "25-Jul-2022 17:42:33"
_WL_UNIT = A
_WL1 = 1.5406
_WL2 = 1.54439
_WL3 = 1.39222
_WLRATIO = 0.5
_ANODE = Cu
_V4_INF_CREATOR = XRDWizard
_V4_INF_CREATOR_VERSION = V2.9.0.22
_V4_INF_WIZARD_VERSION = V2.9.0.22
_V4_INF_WIZARD_ADDINS = V2.9.0.22
_V4_INF_WIZARD_DOCTYPE = XRD
_V4_INF_OSUSER = McQueenLab
_V4_INF_USER = Administrator
_V4_INF_SITE = USA
_V4_INF_SAMPLEID = ML_20220720_5_SJD_0_LaB6-4min

; Data for range 1
_DRIVE = COUPLED
_STEPTIME = 11.28
_STEPSIZE = 0.0185756
_STEPMODE = C
_START = 5
_THETA = 2.5
_2THETA = 5
_KHI = 0
_PHI = 0
_X = 0
_Y = 0
_Z = 0
_DETECTOR = 5
; Detector type : Unknown
_DETECTORSLIT = unkn
_AUX1 = 0
_AUX2 = 0
_AUX3 = 0
_TIMESTARTED = 15
_TEMP_RATE = -1
_TEMP_DELAY = -1
_KV = 40
_MA = 40
_RANGE_WL = 1.5406
_3DPLANE = 0
_V4_ADDITIONALDETECTOR = 257
_V4_PSD2THETA = 3.3882
_V4_PSDCHANNEL1 = 0
_V4_PSDAPERTURE = 12.68
_V4_PSDTYPE = 5
_V4_PSDFIXED = 0
_V4_COUNTERS_MASK = 4096
_V4_DRIVES_MASK = 0
_V4_ENCODERS_MASK = 0
_2THETACOUNTS = 1
; 2THETA  PSD
   5.0000        277
   5.1858        251
   5.3715        234
   5.5573        250
   5.7430        228
   5.9288        164
   6.1145        185
   6.3003        161
   6.4860        161
   6.6718        163
   6.8576        177
   7.0433        155
   7.2291        168
   7.4148        165
   7.6006        175
   7.7863        163
   7.9721        162
   8.1579        214
   8.3436        211
   8.5294        203
   8.7151        202
   8.9009        209
   9.0866        203
   9.2724        223
   9.4581        215
   9.6439        197
   9.8297        220
  10.0154        251
  10.2012        234
  10.3869        255
  10.5727        220
  10.7584        238
  10.9442        245
  11.1299        243
  11.3157        227
  11.5015        245
  11.6872        266
  11.8730        227
  12.0587        224
  12.2445        213
  12.4302        232
  12.6160        225
  12.8018        242
  12.9875        209
  13.1733        231
  13.3590        208
  13.5448        201
  13.7305        184
  13.9163        204
  14.1020        187
  14.2878        175
  14.4736        172
  14.6593        172
  14.8451        162
  15.0308        170
  15.2166        179
  15.4023        175
  15.5881        160
  15.7738        181
  15.9596        156
  16.1454        163
  16.3311        162
  16.5169        153
  16.7026        151
  16.8884        153
  17.0741        169
  17.2599        165
  17.4457        167
  17.6314        177
  17.8172        162
  18.0029        165
  18.1887        149
  18.3744        160
  18.5602        193
  18.7459        189
  18.9317        164
  19.1175        181
  19.3032        188
  19.4890        177
  19.6747        162
  19.8605        192
  20.0462        177
  20.2320        190
  20.4177        158
  20.6035        161
  20.7893        174
  20.9750        203
  21.1608        229
  21.3465        509
  21.5323        204
  21.7180        187
  21.9038        209
  22.0896        206
  22.2753        194
  22.4611        231
  22.6468        216
  22.8326        185
  23.0183        207
  23.2041        189
  23.3898        224
  23.5756        203
  23.7614        204
  23.9471        189
  24.1329        200
  24.3186        208
  24.5044        197
  24.6901        220
  24.8759        187
  25.0616        168
  25.2474        192
  25.4332        188
  25.6189        182
  25.8047        201
  25.9904        215
  26.1762        201
  26.3619        205
  26.5477        222
  26.7335        172
  26.9192        185
  27.1050        202
  27.2907        206
  27.4765        163
  27.6622        174
  27.8480        179
  28.0337        177
  28.2195        160
  28.4053        159
  28.5910        162
  28.7768        160
  28.9625        172
  29.1483        151
  29.3340        170
  29.5198        171
  29.7055        147
  29.8913        152
  30.0771        180
  30.2628        183
  30.4486        235
  30.6343        172
  30.8201        146
  31.0058        165
  31.1916        128
  31.3774        133
  31.5631        139
  31.7489        127
  31.9346        151
  32.1204        141
  32.3061        132
  32.4919        156
  32.6776        121
  32.8634        136
  33.0492        145
  33.2349        115
  33.4207        129
  33.6064        106
  33.7922        101
  33.9779        111
  34.1637        118
  34.3494        108
  34.5352        136
  34.7210        142
  34.9067        115
  35.0925        107
  35.2782         84
  35.4640        117
  35.6497        126
  35.8355        110
  36.0213         97
  36.2070        113
  36.3928         88
  36.5785         87
  36.7643        109
  36.9500        117
  37.1358         98
  37.3215        112
  37.5073        111
  37.6931         93
  37.8788         73
  38.0646         84
  38.2503         85
  38.4361         87
  38.6218         89
  38.8076         74
  38.9933         81
  39.1791         88
  39.3649         93
  39.5506         83
  39.7364         94
  39.9221         72
  40.1079         81
  40.2936         75
  40.4794         70
  40.6652         71
  40.8509         77
  41.0367         98
  41.2224         81
  41.4082         88
  41.5939         89
  41.7797         69
  41.9654         80
  42.1512         94
  42.3370         75
  42.5227         71
  42.7085         76
  42.8942         73
  43.0800         82
  43.2657         89
  43.4515         69
  43.6372        110
  43.8230         76
  44.0088         75
  44.1945         75
  44.3803         74
  44.5660         88
  44.7518         94
  44.9375         78
  45.1233         70
  45.3091         58
  45.4948         70
  45.6806         65
  45.8663         76
  46.0521         69
  46.2378         68
  46.4236         77
  46.6093         63
  46.7951         62
  46.9809         70
  47.1666         64
  47.3524         68
  47.5381         69
  47.7239         49
  47.9096         73
  48.0954         52
  48.2811         62
  48.4669         69
  48.6527         59
  48.8384         60
  49.0242         74
  49.2099         69
  49.3957         67
  49.5814         67
  49.7672         65
  49.9530         51
  50.1387         64
  50.3245         62
  50.5102         55
  50.6960         70
  50.8817         49
  51.0675         63
  51.2532         70
  51.4390         70
  51.6248         50
  51.8105         59
  51.9963         58
  52.1820         56
  52.3678         46
  52.5535         59
  52.7393         34
  52.9250         60
  53.1108         46
  53.2966         60
  53.4823         67
  53.6681         55
  53.8538         72
  54.0396         51
  54.2253         61
  54.4111         52
  54.5969         53
  54.7826         53
  54.9684         57
  55.1541         68
  55.3399         53
  55.5256         45
  55.7114         48
  55.8971         52
  56.0829         58
  56.2687         56
  56.4544         60
  56.6402         60
  56.8259         50
  57.0117         54
  57.1974         47
  57.3832         65
  57.5689         48
  57.7547         58
  57.9405         51
  58.1262         51
  58.3120         60
  58.4977         52
  58.6835         58
  58.8692         59
  59.0550         67
  59.2408         58
  59.4265         59
  59.6123         69
  59.7980         58
  59.9838         49
  60.0024         52