File: notebooks/data/xrd_data/ML_20220718_41_SJD_4_LaB6-1min.csv
;,2THETA,
5.0000,115
5.1858,77
5.3715,71
5.5573,73
5.7430,70
5.9288,82
6.1145,61
6.3003,61
6.4860,65
6.6718,64
6.8576,60
7.0433,59
7.2291,66
7.4148,51
7.6006,68
7.7863,64
7.9721,74
8.1579,68
8.3436,70
8.5294,78
8.7151,70
8.9009,85
9.0866,67
9.2724,71
9.4581,81
9.6439,90
9.8297,84
10.0154,83
10.2012,99
10.3869,90
10.5727,86
10.7584,96
10.9442,107
11.1299,81
11.3157,93
11.5015,88
11.6872,82
11.8730,86
12.0587,84
12.2445,96
12.4302,82
12.6160,95
12.8018,63
12.9875,74
13.1733,79
13.3590,60
13.5448,77
13.7305,78
13.9163,72
14.1020,64
14.2878,64
14.4736,62
14.6593,48
14.8451,67
15.0308,65
15.2166,73
15.4023,60
15.5881,56
15.7738,69
15.9596,58
16.1454,65
16.3311,61
16.5169,69
16.7026,59
16.8884,69
17.0741,54
17.2599,54
17.4457,62
17.6314,61
17.8172,59
18.0029,66
18.1887,60
18.3744,61
18.5602,67
18.7459,65
18.9317,65
19.1175,54
19.3032,69
19.4890,51
19.6747,71
19.8605,66
20.0462,75
20.2320,68
20.4177,63
20.6035,65
20.7893,43
20.9750,59
21.1608,81
21.3465,170
21.5323,50
21.7180,58
21.9038,66
22.0896,75
22.2753,72
22.4611,73
22.6468,72
22.8326,73
23.0183,74
23.2041,78
23.3898,72
23.5756,61
23.7614,74
23.9471,78
24.1329,70
24.3186,75
24.5044,76
24.6901,60
24.8759,74
25.0616,82
25.2474,73
25.4332,82
25.6189,54
25.8047,70
25.9904,68
26.1762,56
26.3619,60
26.5477,75
26.7335,69
26.9192,56
27.1050,71
27.2907,82
27.4765,78
27.6622,55
27.8480,75
28.0337,65
28.2195,56
28.4053,79
28.5910,62
28.7768,62
28.9625,68
29.1483,51
29.3340,65
29.5198,57
29.7055,63
29.8913,44
30.0771,62
30.2628,61
30.4486,105
30.6343,71
30.8201,56
31.0058,53
31.1916,55
31.3774,48
31.5631,56
31.7489,57
31.9346,49
32.1204,38
32.3061,45
32.4919,53
32.6776,52
32.8634,37
33.0492,39
33.2349,39
33.4207,46
33.6064,42
33.7922,39
33.9779,39
34.1637,50
34.3494,40
34.5352,38
34.7210,52
34.9067,40
35.0925,33
35.2782,42
35.4640,40
35.6497,40
35.8355,34
36.0213,34
36.2070,40
36.3928,35
36.5785,37
36.7643,32
36.9500,26
37.1358,33
37.3215,32
37.5073,51
37.6931,34
37.8788,32
38.0646,29
38.2503,29
38.4361,29
38.6218,35
38.8076,28
38.9933,39
39.1791,25
39.3649,30
39.5506,20
39.7364,25
39.9221,37
40.1079,20
40.2936,22
40.4794,28
40.6652,24
40.8509,22
41.0367,19
41.2224,18
41.4082,32
41.5939,34
41.7797,26
41.9654,21
42.1512,28
42.3370,30
42.5227,20
42.7085,20
42.8942,23
43.0800,24
43.2657,33
43.4515,32
43.6372,34
43.8230,32
44.0088,28
44.1945,28
44.3803,30
44.5660,36
44.7518,31
44.9375,31
45.1233,32
45.3091,26
45.4948,31
45.6806,30
45.8663,28
46.0521,22
46.2378,30
46.4236,26
46.6093,29
46.7951,22
46.9809,30
47.1666,23
47.3524,19
47.5381,20
47.7239,31
47.9096,25
48.0954,30
48.2811,25
48.4669,21
48.6527,22
48.8384,26
49.0242,17
49.2099,25
49.3957,25
49.5814,17
49.7672,26
49.9530,21
50.1387,24
50.3245,19
50.5102,17
50.6960,22
50.8817,20
51.0675,27
51.2532,17
51.4390,23
51.6248,22
51.8105,26
51.9963,19
52.1820,19
52.3678,20
52.5535,30
52.7393,22
52.9250,23
53.1108,18
53.2966,21
53.4823,25
53.6681,17
53.8538,15
54.0396,28
54.2253,24
54.4111,22
54.5969,29
54.7826,17
54.9684,14
55.1541,19
55.3399,16
55.5256,16
55.7114,18
55.8971,21
56.0829,25
56.2687,27
56.4544,18
56.6402,26
56.8259,20
57.0117,23
57.1974,14
57.3832,23
57.5689,26
57.7547,19
57.9405,19
58.1262,19
58.3120,23
58.4977,20
58.6835,20
58.8692,26
59.0550,26
59.2408,18
59.4265,21
59.6123,29
59.7980,22
59.9838,16
60.0024,14