File: notebooks/data/xrd_data/ML_20220720_5_SJD_4_LaB6-1min.uxd
; (content of file Y:\Sam\Apurva-07-20-2022\puck4\ML_20220718_5_SJD_0_LaB6-1min.raw)
_FILEVERSION = 3
_SAMPLE = ML_20220718_5_SJD_0_LaB6-1mi
_+SAMPLE =
_SITE = USA
_USER = Administrator
_GONIOMETER_CODE = 20
; Goniometer : D8 theta/2theta, stage : Unknown
_ATTACHMENTS_CODE = 0
_GONIOMETER_RADIUS = 200.5
_FIXED_DIVSLIT = 0.6
_FIXED_SAMPLESLIT = 0
_SOLLER_SLITS = 2
_FIXED_DETSLIT = 9.55
_MONOCHROMATOR = 0
; Incident beam monochromator : None
_SOLLER_SLITS_2 = N
_THIN_FILM = N
_BETA_FILTER = Y
_FIXED_ANTISLIT = 5.89
_ANALYZER_CODE = 0
; Received beam analyzer : None
_DATEMEASURED = "21-Jul-2022 03:08:03"
_WL_UNIT = A
_WL1 = 1.5406
_WL2 = 1.54439
_WL3 = 1.39222
_WLRATIO = 0.5
_ANODE = Cu
_V4_INF_CREATOR = XRDWizard
_V4_INF_CREATOR_VERSION = V2.9.0.22
_V4_INF_WIZARD_VERSION = V2.9.0.22
_V4_INF_WIZARD_ADDINS = V2.9.0.22
_V4_INF_WIZARD_DOCTYPE = XRD
_V4_INF_OSUSER = McQueenLab
_V4_INF_USER = Administrator
_V4_INF_SITE = USA
_V4_INF_SAMPLEID = ML_20220718_5_SJD_0_LaB6-1mi

; Data for range 1
_DRIVE = COUPLED
_STEPTIME = 4.23
_STEPSIZE = 0.0185756
_STEPMODE = C
_START = 5
_THETA = 2.5
_2THETA = 5
_KHI = 0
_PHI = 0
_X = 0
_Y = 0
_Z = 0
_DETECTOR = 5
; Detector type : Unknown
_DETECTORSLIT = unkn
_AUX1 = 0
_AUX2 = 0
_AUX3 = 0
_TIMESTARTED = 15
_TEMP_RATE = -1
_TEMP_DELAY = -1
_KV = 40
_MA = 40
_RANGE_WL = 1.5406
_3DPLANE = 0
_V4_ADDITIONALDETECTOR = 257
_V4_PSD2THETA = 3.3736
_V4_PSDCHANNEL1 = 0
_V4_PSDAPERTURE = 12.68
_V4_PSDTYPE = 5
_V4_PSDFIXED = 0
_V4_COUNTERS_MASK = 4096
_V4_DRIVES_MASK = 0
_V4_ENCODERS_MASK = 0
_2THETACOUNTS = 1
; 2THETA  PSD
   5.0000         88
   5.1858         99
   5.3715         77
   5.5573         79
   5.7430         80
   5.9288         75
   6.1145         60
   6.3003         68
   6.4860         62
   6.6718         55
   6.8576         57
   7.0433         70
   7.2291         48
   7.4148         62
   7.6006         69
   7.7863         65
   7.9721         64
   8.1579         69
   8.3436         70
   8.5294         67
   8.7151         65
   8.9009         74
   9.0866         81
   9.2724         83
   9.4581         64
   9.6439         97
   9.8297         85
  10.0154         76
  10.2012         83
  10.3869        100
  10.5727         91
  10.7584         89
  10.9442         90
  11.1299         81
  11.3157         83
  11.5015         85
  11.6872         76
  11.8730         96
  12.0587         83
  12.2445         73
  12.4302         72
  12.6160         80
  12.8018         71
  12.9875         72
  13.1733         74
  13.3590         64
  13.5448         65
  13.7305         72
  13.9163         57
  14.1020         69
  14.2878         61
  14.4736         63
  14.6593         56
  14.8451         68
  15.0308         59
  15.2166         65
  15.4023         65
  15.5881         51
  15.7738         62
  15.9596         65
  16.1454         68
  16.3311         62
  16.5169         58
  16.7026         59
  16.8884         67
  17.0741         70
  17.2599         66
  17.4457         54
  17.6314         60
  17.8172         59
  18.0029         57
  18.1887         57
  18.3744         52
  18.5602         57
  18.7459         55
  18.9317         70
  19.1175         65
  19.3032         66
  19.4890         73
  19.6747         71
  19.8605         56
  20.0462         55
  20.2320         52
  20.4177         62
  20.6035         64
  20.7893         76
  20.9750         58
  21.1608         92
  21.3465        198
  21.5323         79
  21.7180         81
  21.9038         65
  22.0896         70
  22.2753         61
  22.4611         72
  22.6468         60
  22.8326         69
  23.0183         82
  23.2041         79
  23.3898         73
  23.5756         74
  23.7614         72
  23.9471         68
  24.1329         77
  24.3186         72
  24.5044         79
  24.6901         71
  24.8759         78
  25.0616         68
  25.2474         82
  25.4332         72
  25.6189         68
  25.8047         80
  25.9904         46
  26.1762         80
  26.3619         71
  26.5477         69
  26.7335         63
  26.9192         79
  27.1050         77
  27.2907         75
  27.4765         72
  27.6622         62
  27.8480         60
  28.0337         64
  28.2195         54
  28.4053         67
  28.5910         62
  28.7768         52
  28.9625         54
  29.1483         61
  29.3340         57
  29.5198         42
  29.7055         51
  29.8913         54
  30.0771         55
  30.2628         60
  30.4486         77
  30.6343         61
  30.8201         64
  31.0058         56
  31.1916         39
  31.3774         37
  31.5631         50
  31.7489         55
  31.9346         52
  32.1204         45
  32.3061         44
  32.4919         63
  32.6776         54
  32.8634         49
  33.0492         53
  33.2349         49
  33.4207         50
  33.6064         50
  33.7922         39
  33.9779         34
  34.1637         35
  34.3494         35
  34.5352         37
  34.7210         54
  34.9067         49
  35.0925         41
  35.2782         46
  35.4640         27
  35.6497         36
  35.8355         35
  36.0213         37
  36.2070         32
  36.3928         40
  36.5785         36
  36.7643         41
  36.9500         34
  37.1358         34
  37.3215         46
  37.5073         49
  37.6931         21
  37.8788         27
  38.0646         34
  38.2503         38
  38.4361         40
  38.6218         27
  38.8076         38
  38.9933         34
  39.1791         28
  39.3649         31
  39.5506         26
  39.7364         37
  39.9221         35
  40.1079         23
  40.2936         38
  40.4794         37
  40.6652         23
  40.8509         24
  41.0367         29
  41.2224         19
  41.4082         26
  41.5939         29
  41.7797         27
  41.9654         27
  42.1512         32
  42.3370         19
  42.5227         21
  42.7085         21
  42.8942         25
  43.0800         18
  43.2657         34
  43.4515         47
  43.6372         30
  43.8230         24
  44.0088         26
  44.1945         31
  44.3803         38
  44.5660         34
  44.7518         28
  44.9375         34
  45.1233         31
  45.3091         29
  45.4948         26
  45.6806         21
  45.8663         23
  46.0521         31
  46.2378         27
  46.4236         31
  46.6093         25
  46.7951         20
  46.9809         31
  47.1666         20
  47.3524         16
  47.5381         17
  47.7239         32
  47.9096         19
  48.0954         19
  48.2811         21
  48.4669         17
  48.6527         30
  48.8384         21
  49.0242         30
  49.2099         28
  49.3957         28
  49.5814         16
  49.7672         23
  49.9530         25
  50.1387         43
  50.3245         20
  50.5102         20
  50.6960         27
  50.8817         20
  51.0675         24
  51.2532         16
  51.4390         28
  51.6248         22
  51.8105         28
  51.9963         24
  52.1820         33
  52.3678         19
  52.5535         35
  52.7393         25
  52.9250         18
  53.1108         30
  53.2966         20
  53.4823         20
  53.6681         17
  53.8538         15
  54.0396         25
  54.2253         18
  54.4111         27
  54.5969         20
  54.7826         23
  54.9684         24
  55.1541         18
  55.3399         25
  55.5256         17
  55.7114         21
  55.8971         26
  56.0829         22
  56.2687         32
  56.4544         19
  56.6402         18
  56.8259         18
  57.0117         18
  57.1974         24
  57.3832         11
  57.5689         11
  57.7547         23
  57.9405         24
  58.1262         24
  58.3120         15
  58.4977         22
  58.6835         17
  58.8692         21
  59.0550         19
  59.2408         22
  59.4265         17
  59.6123         18
  59.7980         16
  59.9838         21
  60.0024         29