File: notebooks/data/xrd_data/ML_20220721_17_SJD_4_LaB6-4min.uxd
; (content of file Y:\Sam\Apurva-07-20-2022\puck1\ML_20220721_17_SJD_0_LaB6-4min.raw)
_FILEVERSION = 3
_SAMPLE = ML_20220721_17_SJD_0_LaB6-4min
_+SAMPLE =
_SITE = USA
_USER = Administrator
_GONIOMETER_CODE = 20
; Goniometer : D8 theta/2theta, stage : Unknown
_ATTACHMENTS_CODE = 0
_GONIOMETER_RADIUS = 200.5
_FIXED_DIVSLIT = 0.6
_FIXED_SAMPLESLIT = 0
_SOLLER_SLITS = 2
_FIXED_DETSLIT = 9.55
_MONOCHROMATOR = 0
; Incident beam monochromator : None
_SOLLER_SLITS_2 = N
_THIN_FILM = N
_BETA_FILTER = Y
_FIXED_ANTISLIT = 5.89
_ANALYZER_CODE = 0
; Received beam analyzer : None
_DATEMEASURED = "25-Jul-2022 15:08:46"
_WL_UNIT = A
_WL1 = 1.5406
_WL2 = 1.54439
_WL3 = 1.39222
_WLRATIO = 0.5
_ANODE = Cu
_V4_INF_CREATOR = XRDWizard
_V4_INF_CREATOR_VERSION = V2.9.0.22
_V4_INF_WIZARD_VERSION = V2.9.0.22
_V4_INF_WIZARD_ADDINS = V2.9.0.22
_V4_INF_WIZARD_DOCTYPE = XRD
_V4_INF_OSUSER = McQueenLab
_V4_INF_USER = Administrator
_V4_INF_SITE = USA
_V4_INF_SAMPLEID = ML_20220721_17_SJD_0_LaB6-4min

; Data for range 1
_DRIVE = COUPLED
_STEPTIME = 11.28
_STEPSIZE = 0.0185756
_STEPMODE = C
_START = 5
_THETA = 2.5
_2THETA = 5
_KHI = 0
_PHI = 0
_X = 0
_Y = 0
_Z = 0
_DETECTOR = 5
; Detector type : Unknown
_DETECTORSLIT = unkn
_AUX1 = 0
_AUX2 = 0
_AUX3 = 0
_TIMESTARTED = 15
_TEMP_RATE = -1
_TEMP_DELAY = -1
_KV = 40
_MA = 40
_RANGE_WL = 1.5406
_3DPLANE = 0
_V4_ADDITIONALDETECTOR = 257
_V4_PSD2THETA = 3.3673
_V4_PSDCHANNEL1 = 0
_V4_PSDAPERTURE = 12.68
_V4_PSDTYPE = 5
_V4_PSDFIXED = 0
_V4_COUNTERS_MASK = 4096
_V4_DRIVES_MASK = 0
_V4_ENCODERS_MASK = 0
_2THETACOUNTS = 1
; 2THETA  PSD
   5.0000        284
   5.1858        263
   5.3715        226
   5.5573        216
   5.7430        225
   5.9288        199
   6.1145        182
   6.3003        203
   6.4860        196
   6.6718        171
   6.8576        155
   7.0433        156
   7.2291        173
   7.4148        170
   7.6006        178
   7.7863        182
   7.9721        179
   8.1579        197
   8.3436        185
   8.5294        174
   8.7151        194
   8.9009        215
   9.0866        208
   9.2724        226
   9.4581        206
   9.6439        230
   9.8297        218
  10.0154        247
  10.2012        233
  10.3869        232
  10.5727        260
  10.7584        247
  10.9442        236
  11.1299        238
  11.3157        221
  11.5015        230
  11.6872        217
  11.8730        208
  12.0587        212
  12.2445        213
  12.4302        227
  12.6160        184
  12.8018        212
  12.9875        195
  13.1733        199
  13.3590        207
  13.5448        194
  13.7305        169
  13.9163        192
  14.1020        183
  14.2878        205
  14.4736        163
  14.6593        175
  14.8451        176
  15.0308        174
  15.2166        164
  15.4023        148
  15.5881        180
  15.7738        164
  15.9596        164
  16.1454        146
  16.3311        165
  16.5169        148
  16.7026        168
  16.8884        147
  17.0741        151
  17.2599        173
  17.4457        150
  17.6314        182
  17.8172        173
  18.0029        176
  18.1887        153
  18.3744        162
  18.5602        178
  18.7459        189
  18.9317        192
  19.1175        154
  19.3032        173
  19.4890        172
  19.6747        188
  19.8605        163
  20.0462        172
  20.2320        164
  20.4177        183
  20.6035        198
  20.7893        185
  20.9750        210
  21.1608        257
  21.3465        508
  21.5323        205
  21.7180        192
  21.9038        198
  22.0896        201
  22.2753        213
  22.4611        205
  22.6468        190
  22.8326        187
  23.0183        231
  23.2041        215
  23.3898        206
  23.5756        228
  23.7614        195
  23.9471        195
  24.1329        204
  24.3186        252
  24.5044        203
  24.6901        198
  24.8759        213
  25.0616        203
  25.2474        198
  25.4332        188
  25.6189        186
  25.8047        204
  25.9904        204
  26.1762        210
  26.3619        212
  26.5477        167
  26.7335        198
  26.9192        193
  27.1050        180
  27.2907        234
  27.4765        194
  27.6622        180
  27.8480        168
  28.0337        182
  28.2195        170
  28.4053        172
  28.5910        167
  28.7768        164
  28.9625        175
  29.1483        197
  29.3340        180
  29.5198        155
  29.7055        173
  29.8913        148
  30.0771        133
  30.2628        176
  30.4486        269
  30.6343        181
  30.8201        153
  31.0058        145
  31.1916        144
  31.3774        146
  31.5631        131
  31.7489        143
  31.9346        142
  32.1204        140
  32.3061        126
  32.4919        163
  32.6776        143
  32.8634        123
  33.0492        116
  33.2349        101
  33.4207        137
  33.6064        121
  33.7922        123
  33.9779        135
  34.1637        131
  34.3494        113
  34.5352        109
  34.7210        143
  34.9067        144
  35.0925        113
  35.2782        100
  35.4640         94
  35.6497        117
  35.8355        100
  36.0213         98
  36.2070         97
  36.3928        106
  36.5785         93
  36.7643         88
  36.9500         83
  37.1358         99
  37.3215         97
  37.5073        106
  37.6931        102
  37.8788         76
  38.0646         91
  38.2503         76
  38.4361         73
  38.6218         94
  38.8076         82
  38.9933         88
  39.1791         69
  39.3649         73
  39.5506         88
  39.7364         93
  39.9221         71
  40.1079         68
  40.2936         88
  40.4794         74
  40.6652         81
  40.8509         98
  41.0367         92
  41.2224         71
  41.4082         74
  41.5939         63
  41.7797         97
  41.9654         73
  42.1512         96
  42.3370         80
  42.5227         73
  42.7085         90
  42.8942         74
  43.0800         81
  43.2657        109
  43.4515         91
  43.6372         99
  43.8230         75
  44.0088         83
  44.1945         78
  44.3803         87
  44.5660         73
  44.7518         83
  44.9375         72
  45.1233         65
  45.3091         79
  45.4948         72
  45.6806         74
  45.8663         58
  46.0521         65
  46.2378         66
  46.4236         53
  46.6093         72
  46.7951         68
  46.9809         48
  47.1666         60
  47.3524         60
  47.5381         51
  47.7239         79
  47.9096         55
  48.0954         49
  48.2811         57
  48.4669         61
  48.6527         79
  48.8384         67
  49.0242         88
  49.2099         68
  49.3957         62
  49.5814         73
  49.7672         67
  49.9530         63
  50.1387         45
  50.3245         57
  50.5102         52
  50.6960         52
  50.8817         57
  51.0675         65
  51.2532         58
  51.4390         72
  51.6248         62
  51.8105         63
  51.9963         61
  52.1820         59
  52.3678         74
  52.5535         60
  52.7393         50
  52.9250         67
  53.1108         59
  53.2966         60
  53.4823         58
  53.6681         53
  53.8538         63
  54.0396         63
  54.2253         59
  54.4111         53
  54.5969         60
  54.7826         57
  54.9684         55
  55.1541         55
  55.3399         58
  55.5256         56
  55.7114         50
  55.8971         70
  56.0829         51
  56.2687         50
  56.4544         74
  56.6402         55
  56.8259         49
  57.0117         59
  57.1974         56
  57.3832         44
  57.5689         56
  57.7547         51
  57.9405         63
  58.1262         64
  58.3120         61
  58.4977         53
  58.6835         46
  58.8692         61
  59.0550         56
  59.2408         62
  59.4265         72
  59.6123         50
  59.7980         61
  59.9838         68
  60.0024         53