File: notebooks/data/xrd_data/ML_20220720_3_SJD_4_LaB6-4min.csv
;,2THETA,
5.0000,278
5.1858,240
5.3715,231
5.5573,269
5.7430,208
5.9288,202
6.1145,213
6.3003,190
6.4860,186
6.6718,194
6.8576,171
7.0433,145
7.2291,167
7.4148,178
7.6006,189
7.7863,181
7.9721,156
8.1579,186
8.3436,204
8.5294,204
8.7151,212
8.9009,201
9.0866,219
9.2724,219
9.4581,226
9.6439,253
9.8297,251
10.0154,244
10.2012,231
10.3869,251
10.5727,219
10.7584,219
10.9442,223
11.1299,246
11.3157,220
11.5015,239
11.6872,249
11.8730,220
12.0587,236
12.2445,211
12.4302,245
12.6160,219
12.8018,198
12.9875,207
13.1733,222
13.3590,191
13.5448,211
13.7305,204
13.9163,175
14.1020,154
14.2878,198
14.4736,210
14.6593,177
14.8451,178
15.0308,173
15.2166,191
15.4023,196
15.5881,144
15.7738,170
15.9596,177
16.1454,183
16.3311,177
16.5169,158
16.7026,173
16.8884,194
17.0741,163
17.2599,172
17.4457,171
17.6314,151
17.8172,155
18.0029,164
18.1887,156
18.3744,147
18.5602,147
18.7459,185
18.9317,208
19.1175,186
19.3032,181
19.4890,173
19.6747,156
19.8605,190
20.0462,182
20.2320,192
20.4177,179
20.6035,170
20.7893,182
20.9750,198
21.1608,242
21.3465,542
21.5323,221
21.7180,215
21.9038,199
22.0896,181
22.2753,190
22.4611,208
22.6468,173
22.8326,220
23.0183,189
23.2041,198
23.3898,232
23.5756,195
23.7614,220
23.9471,213
24.1329,205
24.3186,227
24.5044,188
24.6901,224
24.8759,193
25.0616,187
25.2474,214
25.4332,184
25.6189,208
25.8047,197
25.9904,172
26.1762,191
26.3619,200
26.5477,194
26.7335,204
26.9192,183
27.1050,200
27.2907,204
27.4765,134
27.6622,176
27.8480,183
28.0337,187
28.2195,179
28.4053,165
28.5910,176
28.7768,179
28.9625,173
29.1483,145
29.3340,203
29.5198,149
29.7055,170
29.8913,157
30.0771,180
30.2628,159
30.4486,232
30.6343,169
30.8201,148
31.0058,141
31.1916,135
31.3774,151
31.5631,160
31.7489,165
31.9346,147
32.1204,140
32.3061,116
32.4919,165
32.6776,125
32.8634,117
33.0492,112
33.2349,133
33.4207,114
33.6064,108
33.7922,110
33.9779,99
34.1637,138
34.3494,106
34.5352,116
34.7210,131
34.9067,119
35.0925,118
35.2782,119
35.4640,109
35.6497,115
35.8355,81
36.0213,97
36.2070,97
36.3928,94
36.5785,103
36.7643,80
36.9500,81
37.1358,93
37.3215,93
37.5073,128
37.6931,88
37.8788,86
38.0646,80
38.2503,75
38.4361,75
38.6218,73
38.8076,73
38.9933,85
39.1791,80
39.3649,91
39.5506,73
39.7364,82
39.9221,71
40.1079,70
40.2936,90
40.4794,76
40.6652,95
40.8509,93
41.0367,90
41.2224,74
41.4082,78
41.5939,80
41.7797,74
41.9654,80
42.1512,77
42.3370,83
42.5227,76
42.7085,81
42.8942,64
43.0800,87
43.2657,85
43.4515,87
43.6372,96
43.8230,74
44.0088,72
44.1945,73
44.3803,83
44.5660,74
44.7518,86
44.9375,72
45.1233,73
45.3091,51
45.4948,68
45.6806,62
45.8663,55
46.0521,65
46.2378,65
46.4236,75
46.6093,59
46.7951,53
46.9809,64
47.1666,76
47.3524,88
47.5381,82
47.7239,74
47.9096,75
48.0954,52
48.2811,68
48.4669,75
48.6527,65
48.8384,64
49.0242,66
49.2099,70
49.3957,78
49.5814,68
49.7672,69
49.9530,58
50.1387,55
50.3245,79
50.5102,63
50.6960,58
50.8817,71
51.0675,69
51.2532,55
51.4390,55
51.6248,67
51.8105,61
51.9963,57
52.1820,58
52.3678,53
52.5535,58
52.7393,61
52.9250,61
53.1108,73
53.2966,47
53.4823,55
53.6681,58
53.8538,53
54.0396,61
54.2253,65
54.4111,57
54.5969,47
54.7826,70
54.9684,71
55.1541,57
55.3399,50
55.5256,57
55.7114,48
55.8971,59
56.0829,60
56.2687,73
56.4544,65
56.6402,69
56.8259,56
57.0117,67
57.1974,50
57.3832,51
57.5689,47
57.7547,68
57.9405,53
58.1262,60
58.3120,73
58.4977,56
58.6835,46
58.8692,63
59.0550,56
59.2408,49
59.4265,53
59.6123,49
59.7980,65
59.9838,68
60.0024,62