File: notebooks/data/xrd_data/ML_20220721_37_SJD_4_LaB6-4min.uxd
; (content of file Y:\Sam\Apurva-07-20-2022\puck1\ML_20220721_37_SJD_0_LaB6-4min.raw)
_FILEVERSION = 3
_SAMPLE = ML_20220721_37_SJD_0_LaB6-4min
_+SAMPLE =
_SITE = USA
_USER = Administrator
_GONIOMETER_CODE = 20
; Goniometer : D8 theta/2theta, stage : Unknown
_ATTACHMENTS_CODE = 0
_GONIOMETER_RADIUS = 200.5
_FIXED_DIVSLIT = 0.6
_FIXED_SAMPLESLIT = 0
_SOLLER_SLITS = 2
_FIXED_DETSLIT = 9.55
_MONOCHROMATOR = 0
; Incident beam monochromator : None
_SOLLER_SLITS_2 = N
_THIN_FILM = N
_BETA_FILTER = Y
_FIXED_ANTISLIT = 5.89
_ANALYZER_CODE = 0
; Received beam analyzer : None
_DATEMEASURED = "25-Jul-2022 16:38:20"
_WL_UNIT = A
_WL1 = 1.5406
_WL2 = 1.54439
_WL3 = 1.39222
_WLRATIO = 0.5
_ANODE = Cu
_V4_INF_CREATOR = XRDWizard
_V4_INF_CREATOR_VERSION = V2.9.0.22
_V4_INF_WIZARD_VERSION = V2.9.0.22
_V4_INF_WIZARD_ADDINS = V2.9.0.22
_V4_INF_WIZARD_DOCTYPE = XRD
_V4_INF_OSUSER = McQueenLab
_V4_INF_USER = Administrator
_V4_INF_SITE = USA
_V4_INF_SAMPLEID = ML_20220721_37_SJD_0_LaB6-4min

; Data for range 1
_DRIVE = COUPLED
_STEPTIME = 11.28
_STEPSIZE = 0.0185756
_STEPMODE = C
_START = 5
_THETA = 2.5
_2THETA = 5
_KHI = 0
_PHI = 0
_X = 0
_Y = 0
_Z = 0
_DETECTOR = 5
; Detector type : Unknown
_DETECTORSLIT = unkn
_AUX1 = 0
_AUX2 = 0
_AUX3 = 0
_TIMESTARTED = 14
_TEMP_RATE = -1
_TEMP_DELAY = -1
_KV = 40
_MA = 40
_RANGE_WL = 1.5406
_3DPLANE = 0
_V4_ADDITIONALDETECTOR = 257
_V4_PSD2THETA = 3.3877
_V4_PSDCHANNEL1 = 0
_V4_PSDAPERTURE = 12.68
_V4_PSDTYPE = 5
_V4_PSDFIXED = 0
_V4_COUNTERS_MASK = 4096
_V4_DRIVES_MASK = 0
_V4_ENCODERS_MASK = 0
_2THETACOUNTS = 1
; 2THETA  PSD
   5.0000        276
   5.1858        253
   5.3715        261
   5.5573        237
   5.7430        206
   5.9288        226
   6.1145        187
   6.3003        192
   6.4860        169
   6.6718        172
   6.8576        167
   7.0433        176
   7.2291        184
   7.4148        198
   7.6006        157
   7.7863        164
   7.9721        201
   8.1579        200
   8.3436        201
   8.5294        194
   8.7151        197
   8.9009        244
   9.0866        221
   9.2724        236
   9.4581        207
   9.6439        229
   9.8297        232
  10.0154        246
  10.2012        266
  10.3869        260
  10.5727        243
  10.7584        249
  10.9442        231
  11.1299        247
  11.3157        256
  11.5015        249
  11.6872        242
  11.8730        247
  12.0587        233
  12.2445        207
  12.4302        219
  12.6160        232
  12.8018        212
  12.9875        223
  13.1733        203
  13.3590        189
  13.5448        161
  13.7305        217
  13.9163        183
  14.1020        176
  14.2878        190
  14.4736        180
  14.6593        175
  14.8451        174
  15.0308        160
  15.2166        198
  15.4023        178
  15.5881        162
  15.7738        152
  15.9596        204
  16.1454        156
  16.3311        168
  16.5169        136
  16.7026        160
  16.8884        172
  17.0741        157
  17.2599        173
  17.4457        179
  17.6314        175
  17.8172        168
  18.0029        179
  18.1887        140
  18.3744        171
  18.5602        161
  18.7459        173
  18.9317        170
  19.1175        169
  19.3032        179
  19.4890        197
  19.6747        174
  19.8605        204
  20.0462        180
  20.2320        193
  20.4177        170
  20.6035        172
  20.7893        200
  20.9750        190
  21.1608        229
  21.3465        486
  21.5323        203
  21.7180        214
  21.9038        178
  22.0896        189
  22.2753        179
  22.4611        199
  22.6468        212
  22.8326        197
  23.0183        200
  23.2041        206
  23.3898        204
  23.5756        217
  23.7614        189
  23.9471        211
  24.1329        187
  24.3186        227
  24.5044        216
  24.6901        194
  24.8759        198
  25.0616        213
  25.2474        216
  25.4332        195
  25.6189        180
  25.8047        184
  25.9904        213
  26.1762        198
  26.3619        188
  26.5477        176
  26.7335        180
  26.9192        188
  27.1050        205
  27.2907        217
  27.4765        187
  27.6622        195
  27.8480        181
  28.0337        180
  28.2195        182
  28.4053        145
  28.5910        168
  28.7768        169
  28.9625        174
  29.1483        152
  29.3340        151
  29.5198        156
  29.7055        148
  29.8913        158
  30.0771        150
  30.2628        161
  30.4486        228
  30.6343        146
  30.8201        164
  31.0058        156
  31.1916        145
  31.3774        129
  31.5631        121
  31.7489        149
  31.9346        122
  32.1204        141
  32.3061        140
  32.4919        156
  32.6776        128
  32.8634        106
  33.0492        129
  33.2349        136
  33.4207        130
  33.6064        101
  33.7922        106
  33.9779        118
  34.1637        105
  34.3494        107
  34.5352        123
  34.7210        133
  34.9067        118
  35.0925         96
  35.2782        100
  35.4640         96
  35.6497        105
  35.8355         99
  36.0213        110
  36.2070        104
  36.3928        113
  36.5785         93
  36.7643         81
  36.9500         97
  37.1358        108
  37.3215         95
  37.5073        111
  37.6931        103
  37.8788         87
  38.0646         76
  38.2503         91
  38.4361         78
  38.6218         79
  38.8076         71
  38.9933         79
  39.1791         92
  39.3649        102
  39.5506         77
  39.7364         89
  39.9221         85
  40.1079         71
  40.2936         71
  40.4794         63
  40.6652         47
  40.8509         71
  41.0367         84
  41.2224         71
  41.4082         90
  41.5939         77
  41.7797         80
  41.9654         69
  42.1512         71
  42.3370         69
  42.5227         79
  42.7085         81
  42.8942         85
  43.0800         84
  43.2657        102
  43.4515         80
  43.6372        100
  43.8230         78
  44.0088         54
  44.1945         74
  44.3803         77
  44.5660         87
  44.7518         69
  44.9375         70
  45.1233         65
  45.3091         69
  45.4948         63
  45.6806         64
  45.8663         62
  46.0521         69
  46.2378         69
  46.4236         63
  46.6093         64
  46.7951         67
  46.9809         61
  47.1666         60
  47.3524         62
  47.5381         61
  47.7239         81
  47.9096         63
  48.0954         64
  48.2811         73
  48.4669         59
  48.6527         62
  48.8384         90
  49.0242         83
  49.2099         67
  49.3957         66
  49.5814         50
  49.7672         62
  49.9530         68
  50.1387         67
  50.3245         64
  50.5102         55
  50.6960         69
  50.8817         54
  51.0675         53
  51.2532         61
  51.4390         63
  51.6248         65
  51.8105         61
  51.9963         66
  52.1820         55
  52.3678         51
  52.5535         55
  52.7393         57
  52.9250         66
  53.1108         57
  53.2966         52
  53.4823         61
  53.6681         51
  53.8538         58
  54.0396         63
  54.2253         54
  54.4111         55
  54.5969         54
  54.7826         67
  54.9684         49
  55.1541         49
  55.3399         55
  55.5256         49
  55.7114         61
  55.8971         69
  56.0829         60
  56.2687         57
  56.4544         69
  56.6402         50
  56.8259         52
  57.0117         59
  57.1974         48
  57.3832         46
  57.5689         65
  57.7547         66
  57.9405         56
  58.1262         55
  58.3120         56
  58.4977         54
  58.6835         50
  58.8692         55
  59.0550         63
  59.2408         47
  59.4265         64
  59.6123         57
  59.7980         59
  59.9838         55
  60.0024         52