File: notebooks/data/xrd_data/ML_20220718_51_SJD_4_LaB6-1min.csv
;,2THETA,
5.0000,88
5.1858,99
5.3715,89
5.5573,91
5.7430,72
5.9288,81
6.1145,77
6.3003,77
6.4860,53
6.6718,60
6.8576,71
7.0433,56
7.2291,56
7.4148,51
7.6006,65
7.7863,63
7.9721,69
8.1579,52
8.3436,70
8.5294,74
8.7151,62
8.9009,79
9.0866,61
9.2724,83
9.4581,87
9.6439,83
9.8297,91
10.0154,84
10.2012,87
10.3869,78
10.5727,103
10.7584,88
10.9442,86
11.1299,86
11.3157,87
11.5015,83
11.6872,88
11.8730,86
12.0587,86
12.2445,93
12.4302,99
12.6160,71
12.8018,90
12.9875,74
13.1733,72
13.3590,81
13.5448,63
13.7305,80
13.9163,74
14.1020,65
14.2878,71
14.4736,75
14.6593,61
14.8451,60
15.0308,63
15.2166,72
15.4023,66
15.5881,62
15.7738,58
15.9596,65
16.1454,76
16.3311,57
16.5169,57
16.7026,60
16.8884,52
17.0741,39
17.2599,63
17.4457,58
17.6314,53
17.8172,54
18.0029,76
18.1887,75
18.3744,70
18.5602,65
18.7459,60
18.9317,73
19.1175,59
19.3032,69
19.4890,70
19.6747,69
19.8605,65
20.0462,73
20.2320,84
20.4177,52
20.6035,63
20.7893,58
20.9750,82
21.1608,94
21.3465,172
21.5323,70
21.7180,79
21.9038,79
22.0896,74
22.2753,85
22.4611,69
22.6468,74
22.8326,85
23.0183,70
23.2041,79
23.3898,83
23.5756,84
23.7614,87
23.9471,71
24.1329,76
24.3186,88
24.5044,84
24.6901,67
24.8759,57
25.0616,68
25.2474,75
25.4332,89
25.6189,61
25.8047,52
25.9904,67
26.1762,71
26.3619,71
26.5477,78
26.7335,67
26.9192,60
27.1050,68
27.2907,79
27.4765,60
27.6622,63
27.8480,64
28.0337,58
28.2195,60
28.4053,71
28.5910,62
28.7768,55
28.9625,60
29.1483,60
29.3340,48
29.5198,56
29.7055,72
29.8913,44
30.0771,62
30.2628,54
30.4486,89
30.6343,54
30.8201,44
31.0058,56
31.1916,54
31.3774,54
31.5631,34
31.7489,62
31.9346,56
32.1204,43
32.3061,51
32.4919,52
32.6776,59
32.8634,35
33.0492,46
33.2349,38
33.4207,28
33.6064,46
33.7922,38
33.9779,47
34.1637,48
34.3494,47
34.5352,45
34.7210,46
34.9067,52
35.0925,42
35.2782,41
35.4640,34
35.6497,39
35.8355,42
36.0213,36
36.2070,47
36.3928,35
36.5785,36
36.7643,38
36.9500,40
37.1358,22
37.3215,45
37.5073,51
37.6931,32
37.8788,20
38.0646,36
38.2503,27
38.4361,38
38.6218,31
38.8076,29
38.9933,20
39.1791,35
39.3649,30
39.5506,32
39.7364,32
39.9221,35
40.1079,21
40.2936,29
40.4794,32
40.6652,28
40.8509,38
41.0367,28
41.2224,27
41.4082,30
41.5939,33
41.7797,30
41.9654,31
42.1512,26
42.3370,24
42.5227,25
42.7085,22
42.8942,18
43.0800,26
43.2657,37
43.4515,32
43.6372,33
43.8230,13
44.0088,26
44.1945,34
44.3803,21
44.5660,27
44.7518,35
44.9375,27
45.1233,28
45.3091,20
45.4948,23
45.6806,22
45.8663,18
46.0521,26
46.2378,23
46.4236,25
46.6093,19
46.7951,28
46.9809,35
47.1666,13
47.3524,25
47.5381,27
47.7239,23
47.9096,16
48.0954,17
48.2811,17
48.4669,27
48.6527,15
48.8384,24
49.0242,28
49.2099,22
49.3957,27
49.5814,18
49.7672,16
49.9530,24
50.1387,26
50.3245,24
50.5102,26
50.6960,20
50.8817,26
51.0675,14
51.2532,23
51.4390,24
51.6248,20
51.8105,19
51.9963,27
52.1820,23
52.3678,22
52.5535,19
52.7393,17
52.9250,20
53.1108,23
53.2966,21
53.4823,21
53.6681,15
53.8538,21
54.0396,18
54.2253,21
54.4111,30
54.5969,17
54.7826,21
54.9684,17
55.1541,25
55.3399,29
55.5256,11
55.7114,18
55.8971,22
56.0829,19
56.2687,23
56.4544,20
56.6402,14
56.8259,21
57.0117,14
57.1974,15
57.3832,15
57.5689,13
57.7547,25
57.9405,17
58.1262,20
58.3120,20
58.4977,21
58.6835,17
58.8692,12
59.0550,26
59.2408,18
59.4265,22
59.6123,18
59.7980,22
59.9838,20
60.0024,16