File: notebooks/data/xrd_data/ML_20220718_59_SJD_4_LaB6-1min.csv
;,2THETA,
5.0000,102
5.1858,83
5.3715,76
5.5573,75
5.7430,85
5.9288,78
6.1145,81
6.3003,81
6.4860,59
6.6718,67
6.8576,64
7.0433,53
7.2291,66
7.4148,51
7.6006,57
7.7863,59
7.9721,46
8.1579,60
8.3436,71
8.5294,61
8.7151,71
8.9009,60
9.0866,63
9.2724,66
9.4581,102
9.6439,51
9.8297,90
10.0154,91
10.2012,85
10.3869,91
10.5727,85
10.7584,83
10.9442,104
11.1299,83
11.3157,86
11.5015,91
11.6872,95
11.8730,83
12.0587,84
12.2445,85
12.4302,92
12.6160,79
12.8018,91
12.9875,94
13.1733,73
13.3590,73
13.5448,72
13.7305,58
13.9163,72
14.1020,70
14.2878,54
14.4736,61
14.6593,68
14.8451,68
15.0308,61
15.2166,58
15.4023,53
15.5881,71
15.7738,58
15.9596,53
16.1454,55
16.3311,54
16.5169,62
16.7026,82
16.8884,66
17.0741,69
17.2599,72
17.4457,71
17.6314,53
17.8172,64
18.0029,55
18.1887,70
18.3744,66
18.5602,48
18.7459,58
18.9317,65
19.1175,65
19.3032,54
19.4890,67
19.6747,65
19.8605,55
20.0462,69
20.2320,66
20.4177,67
20.6035,65
20.7893,70
20.9750,62
21.1608,91
21.3465,181
21.5323,79
21.7180,70
21.9038,79
22.0896,83
22.2753,74
22.4611,71
22.6468,67
22.8326,89
23.0183,63
23.2041,77
23.3898,75
23.5756,69
23.7614,85
23.9471,83
24.1329,61
24.3186,78
24.5044,84
24.6901,73
24.8759,63
25.0616,68
25.2474,59
25.4332,75
25.6189,56
25.8047,58
25.9904,65
26.1762,59
26.3619,72
26.5477,80
26.7335,61
26.9192,54
27.1050,83
27.2907,84
27.4765,69
27.6622,58
27.8480,76
28.0337,69
28.2195,60
28.4053,63
28.5910,69
28.7768,60
28.9625,51
29.1483,62
29.3340,54
29.5198,67
29.7055,69
29.8913,63
30.0771,51
30.2628,73
30.4486,84
30.6343,60
30.8201,55
31.0058,64
31.1916,55
31.3774,51
31.5631,58
31.7489,43
31.9346,48
32.1204,49
32.3061,52
32.4919,46
32.6776,36
32.8634,55
33.0492,57
33.2349,49
33.4207,47
33.6064,47
33.7922,37
33.9779,36
34.1637,48
34.3494,53
34.5352,42
34.7210,60
34.9067,34
35.0925,31
35.2782,41
35.4640,46
35.6497,31
35.8355,46
36.0213,44
36.2070,32
36.3928,39
36.5785,29
36.7643,35
36.9500,21
37.1358,35
37.3215,47
37.5073,48
37.6931,27
37.8788,29
38.0646,30
38.2503,29
38.4361,34
38.6218,37
38.8076,30
38.9933,32
39.1791,18
39.3649,20
39.5506,27
39.7364,30
39.9221,26
40.1079,27
40.2936,22
40.4794,29
40.6652,15
40.8509,32
41.0367,43
41.2224,23
41.4082,37
41.5939,30
41.7797,27
41.9654,30
42.1512,31
42.3370,29
42.5227,32
42.7085,24
42.8942,25
43.0800,30
43.2657,35
43.4515,35
43.6372,45
43.8230,26
44.0088,26
44.1945,24
44.3803,25
44.5660,29
44.7518,31
44.9375,22
45.1233,33
45.3091,22
45.4948,19
45.6806,26
45.8663,16
46.0521,22
46.2378,25
46.4236,29
46.6093,28
46.7951,19
46.9809,24
47.1666,21
47.3524,28
47.5381,24
47.7239,19
47.9096,27
48.0954,22
48.2811,21
48.4669,23
48.6527,25
48.8384,23
49.0242,32
49.2099,32
49.3957,18
49.5814,21
49.7672,13
49.9530,25
50.1387,23
50.3245,26
50.5102,27
50.6960,18
50.8817,25
51.0675,19
51.2532,20
51.4390,24
51.6248,23
51.8105,30
51.9963,23
52.1820,25
52.3678,12
52.5535,17
52.7393,15
52.9250,26
53.1108,23
53.2966,20
53.4823,18
53.6681,18
53.8538,11
54.0396,28
54.2253,18
54.4111,18
54.5969,17
54.7826,22
54.9684,22
55.1541,22
55.3399,19
55.5256,20
55.7114,20
55.8971,20
56.0829,22
56.2687,18
56.4544,24
56.6402,21
56.8259,23
57.0117,22
57.1974,20
57.3832,13
57.5689,16
57.7547,14
57.9405,13
58.1262,19
58.3120,27
58.4977,23
58.6835,19
58.8692,22
59.0550,21
59.2408,22
59.4265,16
59.6123,12
59.7980,15
59.9838,20
60.0024,23