File: notebooks/data/xrd_data/ML_20220721_36_SJD_4_LaB6-4min.uxd
; (content of file Y:\Sam\Apurva-07-20-2022\puck1\ML_20220721_36_SJD_0_LaB6-4min.raw)
_FILEVERSION = 3
_SAMPLE = ML_20220721_36_SJD_0_LaB6-4min
_+SAMPLE =
_SITE = USA
_USER = Administrator
_GONIOMETER_CODE = 20
; Goniometer : D8 theta/2theta, stage : Unknown
_ATTACHMENTS_CODE = 0
_GONIOMETER_RADIUS = 200.5
_FIXED_DIVSLIT = 0.6
_FIXED_SAMPLESLIT = 0
_SOLLER_SLITS = 2
_FIXED_DETSLIT = 9.55
_MONOCHROMATOR = 0
; Incident beam monochromator : None
_SOLLER_SLITS_2 = N
_THIN_FILM = N
_BETA_FILTER = Y
_FIXED_ANTISLIT = 5.89
_ANALYZER_CODE = 0
; Received beam analyzer : None
_DATEMEASURED = "25-Jul-2022 16:33:52"
_WL_UNIT = A
_WL1 = 1.5406
_WL2 = 1.54439
_WL3 = 1.39222
_WLRATIO = 0.5
_ANODE = Cu
_V4_INF_CREATOR = XRDWizard
_V4_INF_CREATOR_VERSION = V2.9.0.22
_V4_INF_WIZARD_VERSION = V2.9.0.22
_V4_INF_WIZARD_ADDINS = V2.9.0.22
_V4_INF_WIZARD_DOCTYPE = XRD
_V4_INF_OSUSER = McQueenLab
_V4_INF_USER = Administrator
_V4_INF_SITE = USA
_V4_INF_SAMPLEID = ML_20220721_36_SJD_0_LaB6-4min

; Data for range 1
_DRIVE = COUPLED
_STEPTIME = 11.28
_STEPSIZE = 0.0185756
_STEPMODE = C
_START = 5
_THETA = 2.5
_2THETA = 5
_KHI = 0
_PHI = 0
_X = 0
_Y = 0
_Z = 0
_DETECTOR = 5
; Detector type : Unknown
_DETECTORSLIT = unkn
_AUX1 = 0
_AUX2 = 0
_AUX3 = 0
_TIMESTARTED = 15
_TEMP_RATE = -1
_TEMP_DELAY = -1
_KV = 40
_MA = 40
_RANGE_WL = 1.5406
_3DPLANE = 0
_V4_ADDITIONALDETECTOR = 257
_V4_PSD2THETA = 3.3675
_V4_PSDCHANNEL1 = 0
_V4_PSDAPERTURE = 12.68
_V4_PSDTYPE = 5
_V4_PSDFIXED = 0
_V4_COUNTERS_MASK = 4096
_V4_DRIVES_MASK = 0
_V4_ENCODERS_MASK = 0
_2THETACOUNTS = 1
; 2THETA  PSD
   5.0000        275
   5.1858        275
   5.3715        207
   5.5573        222
   5.7430        197
   5.9288        209
   6.1145        219
   6.3003        198
   6.4860        187
   6.6718        184
   6.8576        157
   7.0433        156
   7.2291        158
   7.4148        181
   7.6006        163
   7.7863        170
   7.9721        195
   8.1579        166
   8.3436        210
   8.5294        190
   8.7151        210
   8.9009        213
   9.0866        218
   9.2724        221
   9.4581        212
   9.6439        235
   9.8297        247
  10.0154        233
  10.2012        233
  10.3869        226
  10.5727        235
  10.7584        275
  10.9442        234
  11.1299        240
  11.3157        220
  11.5015        222
  11.6872        221
  11.8730        234
  12.0587        233
  12.2445        221
  12.4302        230
  12.6160        194
  12.8018        190
  12.9875        220
  13.1733        185
  13.3590        196
  13.5448        215
  13.7305        189
  13.9163        194
  14.1020        170
  14.2878        177
  14.4736        186
  14.6593        170
  14.8451        165
  15.0308        174
  15.2166        164
  15.4023        166
  15.5881        188
  15.7738        201
  15.9596        155
  16.1454        173
  16.3311        155
  16.5169        142
  16.7026        161
  16.8884        148
  17.0741        166
  17.2599        171
  17.4457        168
  17.6314        164
  17.8172        175
  18.0029        180
  18.1887        141
  18.3744        173
  18.5602        170
  18.7459        154
  18.9317        175
  19.1175        186
  19.3032        173
  19.4890        170
  19.6747        188
  19.8605        183
  20.0462        168
  20.2320        195
  20.4177        192
  20.6035        187
  20.7893        175
  20.9750        211
  21.1608        241
  21.3465        476
  21.5323        208
  21.7180        187
  21.9038        200
  22.0896        184
  22.2753        216
  22.4611        220
  22.6468        206
  22.8326        183
  23.0183        199
  23.2041        198
  23.3898        198
  23.5756        206
  23.7614        216
  23.9471        216
  24.1329        210
  24.3186        200
  24.5044        189
  24.6901        234
  24.8759        187
  25.0616        204
  25.2474        206
  25.4332        199
  25.6189        212
  25.8047        199
  25.9904        227
  26.1762        184
  26.3619        187
  26.5477        182
  26.7335        181
  26.9192        184
  27.1050        205
  27.2907        215
  27.4765        187
  27.6622        168
  27.8480        180
  28.0337        164
  28.2195        172
  28.4053        155
  28.5910        176
  28.7768        176
  28.9625        174
  29.1483        162
  29.3340        153
  29.5198        155
  29.7055        158
  29.8913        161
  30.0771        190
  30.2628        159
  30.4486        247
  30.6343        148
  30.8201        143
  31.0058        142
  31.1916        145
  31.3774        143
  31.5631        157
  31.7489        122
  31.9346        151
  32.1204        156
  32.3061        137
  32.4919        149
  32.6776        121
  32.8634        140
  33.0492        114
  33.2349        130
  33.4207        128
  33.6064        115
  33.7922        105
  33.9779        119
  34.1637        112
  34.3494        117
  34.5352        124
  34.7210        148
  34.9067        118
  35.0925        127
  35.2782        104
  35.4640        122
  35.6497        111
  35.8355         88
  36.0213        113
  36.2070         94
  36.3928        106
  36.5785        108
  36.7643         89
  36.9500         94
  37.1358         93
  37.3215         91
  37.5073        120
  37.6931         82
  37.8788         89
  38.0646         90
  38.2503         89
  38.4361         88
  38.6218         84
  38.8076         65
  38.9933         88
  39.1791         91
  39.3649         62
  39.5506         71
  39.7364         77
  39.9221         72
  40.1079         82
  40.2936         87
  40.4794         71
  40.6652         66
  40.8509         85
  41.0367         71
  41.2224         85
  41.4082         84
  41.5939         79
  41.7797         79
  41.9654         79
  42.1512         76
  42.3370         72
  42.5227         68
  42.7085         74
  42.8942         88
  43.0800         61
  43.2657         89
  43.4515         74
  43.6372         99
  43.8230         70
  44.0088         78
  44.1945         67
  44.3803         82
  44.5660         74
  44.7518         74
  44.9375         54
  45.1233         73
  45.3091         75
  45.4948         88
  45.6806         58
  45.8663         71
  46.0521         58
  46.2378         74
  46.4236         83
  46.6093         58
  46.7951         81
  46.9809         59
  47.1666         63
  47.3524         66
  47.5381         68
  47.7239         60
  47.9096         62
  48.0954         71
  48.2811         77
  48.4669         55
  48.6527         75
  48.8384         60
  49.0242         74
  49.2099         70
  49.3957         68
  49.5814         72
  49.7672         60
  49.9530         62
  50.1387         58
  50.3245         57
  50.5102         55
  50.6960         60
  50.8817         60
  51.0675         57
  51.2532         62
  51.4390         55
  51.6248         55
  51.8105         50
  51.9963         73
  52.1820         79
  52.3678         70
  52.5535         45
  52.7393         52
  52.9250         49
  53.1108         53
  53.2966         51
  53.4823         66
  53.6681         63
  53.8538         50
  54.0396         59
  54.2253         69
  54.4111         68
  54.5969         52
  54.7826         43
  54.9684         62
  55.1541         56
  55.3399         59
  55.5256         55
  55.7114         60
  55.8971         60
  56.0829         63
  56.2687         75
  56.4544         54
  56.6402         65
  56.8259         56
  57.0117         62
  57.1974         57
  57.3832         63
  57.5689         52
  57.7547         62
  57.9405         64
  58.1262         49
  58.3120         65
  58.4977         38
  58.6835         52
  58.8692         65
  59.0550         63
  59.2408         49
  59.4265         55
  59.6123         55
  59.7980         43
  59.9838         49
  60.0024         50