File: notebooks/data/xrd_data/ML_20220718_51_SJD_4_LaB6-4min.uxd
; (content of file Y:\Sam\Apurva-07-20-2022\puck4\ML_20220718_51_SJD_4_LaB6-4min.raw)
_FILEVERSION = 3
_SAMPLE = ML_20220718_51_SJD_4_LaB6-4min
_+SAMPLE =
_SITE = USA
_USER = Administrator
_GONIOMETER_CODE = 20
; Goniometer : D8 theta/2theta, stage : Unknown
_ATTACHMENTS_CODE = 0
_GONIOMETER_RADIUS = 200.5
_FIXED_DIVSLIT = 0.6
_FIXED_SAMPLESLIT = 0
_SOLLER_SLITS = 2
_FIXED_DETSLIT = 9.55
_MONOCHROMATOR = 0
; Incident beam monochromator : None
_SOLLER_SLITS_2 = N
_THIN_FILM = N
_BETA_FILTER = Y
_FIXED_ANTISLIT = 5.89
_ANALYZER_CODE = 0
; Received beam analyzer : None
_DATEMEASURED = "26-Jul-2022 14:05:16"
_WL_UNIT = A
_WL1 = 1.5406
_WL2 = 1.54439
_WL3 = 1.39222
_WLRATIO = 0.5
_ANODE = Cu
_V4_INF_CREATOR = XRDWizard
_V4_INF_CREATOR_VERSION = V2.9.0.22
_V4_INF_WIZARD_VERSION = V2.9.0.22
_V4_INF_WIZARD_ADDINS = V2.9.0.22
_V4_INF_WIZARD_DOCTYPE = XRD
_V4_INF_OSUSER = McQueenLab
_V4_INF_USER = Administrator
_V4_INF_SITE = USA
_V4_INF_SAMPLEID = ML_20220718_51_SJD_4_LaB6-4min

; Data for range 1
_DRIVE = COUPLED
_STEPTIME = 11.28
_STEPSIZE = 0.0185756
_STEPMODE = C
_START = 5
_THETA = 2.5
_2THETA = 5
_KHI = 0
_PHI = 0
_X = 0
_Y = 0
_Z = 0
_DETECTOR = 5
; Detector type : Unknown
_DETECTORSLIT = unkn
_AUX1 = 0
_AUX2 = 0
_AUX3 = 0
_TIMESTARTED = 15
_TEMP_RATE = -1
_TEMP_DELAY = -1
_KV = 40
_MA = 40
_RANGE_WL = 1.5406
_3DPLANE = 0
_V4_ADDITIONALDETECTOR = 257
_V4_PSD2THETA = 3.3901
_V4_PSDCHANNEL1 = 0
_V4_PSDAPERTURE = 12.68
_V4_PSDTYPE = 5
_V4_PSDFIXED = 0
_V4_COUNTERS_MASK = 4096
_V4_DRIVES_MASK = 0
_V4_ENCODERS_MASK = 0
_2THETACOUNTS = 1
; 2THETA  PSD
   5.0000        278
   5.1858        245
   5.3715        237
   5.5573        223
   5.7430        234
   5.9288        212
   6.1145        192
   6.3003        179
   6.4860        212
   6.6718        160
   6.8576        168
   7.0433        150
   7.2291        152
   7.4148        172
   7.6006        174
   7.7863        159
   7.9721        173
   8.1579        204
   8.3436        164
   8.5294        207
   8.7151        217
   8.9009        201
   9.0866        231
   9.2724        218
   9.4581        213
   9.6439        227
   9.8297        225
  10.0154        268
  10.2012        227
  10.3869        231
  10.5727        225
  10.7584        252
  10.9442        214
  11.1299        206
  11.3157        225
  11.5015        225
  11.6872        238
  11.8730        242
  12.0587        233
  12.2445        250
  12.4302        211
  12.6160        198
  12.8018        201
  12.9875        239
  13.1733        210
  13.3590        228
  13.5448        180
  13.7305        203
  13.9163        180
  14.1020        183
  14.2878        206
  14.4736        161
  14.6593        178
  14.8451        179
  15.0308        178
  15.2166        170
  15.4023        170
  15.5881        160
  15.7738        169
  15.9596        151
  16.1454        157
  16.3311        164
  16.5169        150
  16.7026        159
  16.8884        166
  17.0741        163
  17.2599        182
  17.4457        158
  17.6314        153
  17.8172        163
  18.0029        194
  18.1887        151
  18.3744        150
  18.5602        149
  18.7459        176
  18.9317        170
  19.1175        172
  19.3032        165
  19.4890        166
  19.6747        167
  19.8605        166
  20.0462        158
  20.2320        175
  20.4177        155
  20.6035        192
  20.7893        181
  20.9750        185
  21.1608        207
  21.3465        495
  21.5323        182
  21.7180        165
  21.9038        178
  22.0896        213
  22.2753        205
  22.4611        204
  22.6468        204
  22.8326        211
  23.0183        198
  23.2041        192
  23.3898        176
  23.5756        174
  23.7614        215
  23.9471        198
  24.1329        213
  24.3186        231
  24.5044        179
  24.6901        212
  24.8759        204
  25.0616        209
  25.2474        199
  25.4332        183
  25.6189        186
  25.8047        190
  25.9904        182
  26.1762        182
  26.3619        198
  26.5477        190
  26.7335        174
  26.9192        202
  27.1050        200
  27.2907        219
  27.4765        170
  27.6622        180
  27.8480        181
  28.0337        184
  28.2195        174
  28.4053        169
  28.5910        178
  28.7768        181
  28.9625        181
  29.1483        155
  29.3340        164
  29.5198        174
  29.7055        161
  29.8913        151
  30.0771        136
  30.2628        169
  30.4486        231
  30.6343        134
  30.8201        138
  31.0058        143
  31.1916        154
  31.3774        122
  31.5631        149
  31.7489        130
  31.9346        118
  32.1204        109
  32.3061        117
  32.4919        165
  32.6776        141
  32.8634        145
  33.0492        133
  33.2349        112
  33.4207         91
  33.6064        115
  33.7922        117
  33.9779        106
  34.1637        108
  34.3494        110
  34.5352        109
  34.7210        128
  34.9067        136
  35.0925        113
  35.2782        100
  35.4640        128
  35.6497         91
  35.8355         99
  36.0213         91
  36.2070        107
  36.3928         89
  36.5785        103
  36.7643         73
  36.9500        107
  37.1358         98
  37.3215         86
  37.5073        127
  37.6931         86
  37.8788         89
  38.0646         72
  38.2503         89
  38.4361         85
  38.6218         68
  38.8076         92
  38.9933         82
  39.1791        103
  39.3649         80
  39.5506         80
  39.7364         73
  39.9221         87
  40.1079         67
  40.2936         72
  40.4794         72
  40.6652         76
  40.8509         93
  41.0367         67
  41.2224         78
  41.4082         70
  41.5939         76
  41.7797         78
  41.9654         63
  42.1512         81
  42.3370         77
  42.5227         71
  42.7085         70
  42.8942         72
  43.0800         81
  43.2657         82
  43.4515         97
  43.6372         89
  43.8230         76
  44.0088         78
  44.1945         67
  44.3803         68
  44.5660         86
  44.7518         96
  44.9375         68
  45.1233         62
  45.3091         72
  45.4948         66
  45.6806         63
  45.8663         63
  46.0521         54
  46.2378         67
  46.4236         73
  46.6093         68
  46.7951         72
  46.9809         73
  47.1666         63
  47.3524         72
  47.5381         58
  47.7239         58
  47.9096         68
  48.0954         70
  48.2811         61
  48.4669         57
  48.6527         64
  48.8384         72
  49.0242         86
  49.2099         48
  49.3957         69
  49.5814         75
  49.7672         49
  49.9530         72
  50.1387         79
  50.3245         55
  50.5102         63
  50.6960         52
  50.8817         55
  51.0675         60
  51.2532         66
  51.4390         73
  51.6248         62
  51.8105         67
  51.9963         76
  52.1820         58
  52.3678         67
  52.5535         76
  52.7393         56
  52.9250         68
  53.1108         46
  53.2966         61
  53.4823         49
  53.6681         50
  53.8538         61
  54.0396         59
  54.2253         59
  54.4111         43
  54.5969         54
  54.7826         57
  54.9684         29
  55.1541         47
  55.3399         46
  55.5256         50
  55.7114         56
  55.8971         67
  56.0829         54
  56.2687         50
  56.4544         67
  56.6402         39
  56.8259         79
  57.0117         45
  57.1974         53
  57.3832         57
  57.5689         45
  57.7547         56
  57.9405         62
  58.1262         54
  58.3120         81
  58.4977         58
  58.6835         52
  58.8692         56
  59.0550         53
  59.2408         59
  59.4265         45
  59.6123         60
  59.7980         51
  59.9838         42
  60.0024         51