File: notebooks/data/xrd_data/ML_20220718_33_SJD_4_LaB6-2min.csv
;,2THETA,
5.0000,131
5.1858,131
5.3715,109
5.5573,124
5.7430,107
5.9288,106
6.1145,107
6.3003,88
6.4860,86
6.6718,89
6.8576,86
7.0433,80
7.2291,69
7.4148,75
7.6006,78
7.7863,77
7.9721,81
8.1579,87
8.3436,96
8.5294,102
8.7151,103
8.9009,99
9.0866,113
9.2724,119
9.4581,96
9.6439,119
9.8297,128
10.0154,104
10.2012,129
10.3869,128
10.5727,133
10.7584,100
10.9442,125
11.1299,124
11.3157,114
11.5015,105
11.6872,125
11.8730,92
12.0587,118
12.2445,119
12.4302,107
12.6160,120
12.8018,101
12.9875,108
13.1733,103
13.3590,97
13.5448,94
13.7305,107
13.9163,84
14.1020,95
14.2878,84
14.4736,80
14.6593,67
14.8451,82
15.0308,72
15.2166,75
15.4023,98
15.5881,87
15.7738,72
15.9596,81
16.1454,89
16.3311,76
16.5169,88
16.7026,86
16.8884,93
17.0741,77
17.2599,72
17.4457,72
17.6314,92
17.8172,76
18.0029,77
18.1887,89
18.3744,68
18.5602,86
18.7459,85
18.9317,87
19.1175,88
19.3032,83
19.4890,86
19.6747,81
19.8605,77
20.0462,80
20.2320,81
20.4177,77
20.6035,105
20.7893,89
20.9750,92
21.1608,121
21.3465,221
21.5323,97
21.7180,108
21.9038,83
22.0896,92
22.2753,78
22.4611,79
22.6468,100
22.8326,106
23.0183,117
23.2041,103
23.3898,96
23.5756,91
23.7614,103
23.9471,82
24.1329,105
24.3186,111
24.5044,113
24.6901,108
24.8759,86
25.0616,82
25.2474,107
25.4332,96
25.6189,84
25.8047,101
25.9904,97
26.1762,109
26.3619,96
26.5477,97
26.7335,89
26.9192,98
27.1050,87
27.2907,108
27.4765,83
27.6622,72
27.8480,75
28.0337,84
28.2195,79
28.4053,85
28.5910,79
28.7768,87
28.9625,93
29.1483,66
29.3340,81
29.5198,89
29.7055,69
29.8913,93
30.0771,90
30.2628,91
30.4486,133
30.6343,83
30.8201,81
31.0058,54
31.1916,69
31.3774,61
31.5631,71
31.7489,67
31.9346,60
32.1204,62
32.3061,63
32.4919,78
32.6776,70
32.8634,56
33.0492,48
33.2349,62
33.4207,53
33.6064,51
33.7922,54
33.9779,48
34.1637,57
34.3494,41
34.5352,43
34.7210,78
34.9067,55
35.0925,63
35.2782,52
35.4640,53
35.6497,50
35.8355,58
36.0213,48
36.2070,45
36.3928,43
36.5785,52
36.7643,48
36.9500,39
37.1358,47
37.3215,50
37.5073,60
37.6931,39
37.8788,45
38.0646,38
38.2503,46
38.4361,47
38.6218,37
38.8076,35
38.9933,48
39.1791,46
39.3649,38
39.5506,36
39.7364,36
39.9221,49
40.1079,44
40.2936,34
40.4794,44
40.6652,37
40.8509,36
41.0367,44
41.2224,44
41.4082,50
41.5939,32
41.7797,27
41.9654,35
42.1512,37
42.3370,40
42.5227,35
42.7085,48
42.8942,46
43.0800,37
43.2657,31
43.4515,40
43.6372,60
43.8230,33
44.0088,32
44.1945,41
44.3803,35
44.5660,32
44.7518,37
44.9375,25
45.1233,37
45.3091,22
45.4948,31
45.6806,30
45.8663,35
46.0521,40
46.2378,36
46.4236,42
46.6093,31
46.7951,42
46.9809,35
47.1666,27
47.3524,31
47.5381,24
47.7239,25
47.9096,37
48.0954,25
48.2811,30
48.4669,37
48.6527,22
48.8384,29
49.0242,31
49.2099,35
49.3957,34
49.5814,33
49.7672,31
49.9530,30
50.1387,34
50.3245,38
50.5102,32
50.6960,27
50.8817,30
51.0675,37
51.2532,29
51.4390,31
51.6248,35
51.8105,32
51.9963,32
52.1820,35
52.3678,28
52.5535,43
52.7393,24
52.9250,22
53.1108,42
53.2966,26
53.4823,28
53.6681,34
53.8538,29
54.0396,31
54.2253,34
54.4111,11
54.5969,34
54.7826,25
54.9684,24
55.1541,20
55.3399,27
55.5256,31
55.7114,25
55.8971,26
56.0829,26
56.2687,34
56.4544,30
56.6402,27
56.8259,37
57.0117,26
57.1974,22
57.3832,26
57.5689,26
57.7547,31
57.9405,31
58.1262,34
58.3120,25
58.4977,30
58.6835,41
58.8692,26
59.0550,25
59.2408,23
59.4265,29
59.6123,31
59.7980,22
59.9838,30
60.0024,35