File: notebooks/data/xrd_data/ML_20220720_2_SJD_4_LaB6-4min.uxd
; (content of file Y:\Sam\Apurva-07-20-2022\puck2\ML_20220720_2_SJD_0_LaB6-4min.raw)
_FILEVERSION = 3
_SAMPLE = ML_20220720_2_SJD_0_LaB6-4min
_+SAMPLE =
_SITE = USA
_USER = Administrator
_GONIOMETER_CODE = 20
; Goniometer : D8 theta/2theta, stage : Unknown
_ATTACHMENTS_CODE = 0
_GONIOMETER_RADIUS = 200.5
_FIXED_DIVSLIT = 0.6
_FIXED_SAMPLESLIT = 0
_SOLLER_SLITS = 2
_FIXED_DETSLIT = 9.55
_MONOCHROMATOR = 0
; Incident beam monochromator : None
_SOLLER_SLITS_2 = N
_THIN_FILM = N
_BETA_FILTER = Y
_FIXED_ANTISLIT = 5.89
_ANALYZER_CODE = 0
; Received beam analyzer : None
_DATEMEASURED = "25-Jul-2022 17:29:07"
_WL_UNIT = A
_WL1 = 1.5406
_WL2 = 1.54439
_WL3 = 1.39222
_WLRATIO = 0.5
_ANODE = Cu
_V4_INF_CREATOR = XRDWizard
_V4_INF_CREATOR_VERSION = V2.9.0.22
_V4_INF_WIZARD_VERSION = V2.9.0.22
_V4_INF_WIZARD_ADDINS = V2.9.0.22
_V4_INF_WIZARD_DOCTYPE = XRD
_V4_INF_OSUSER = McQueenLab
_V4_INF_USER = Administrator
_V4_INF_SITE = USA
_V4_INF_SAMPLEID = ML_20220720_2_SJD_0_LaB6-4min

; Data for range 1
_DRIVE = COUPLED
_STEPTIME = 11.28
_STEPSIZE = 0.0185756
_STEPMODE = C
_START = 5
_THETA = 2.5
_2THETA = 5
_KHI = 0
_PHI = 0
_X = 0
_Y = 0
_Z = 0
_DETECTOR = 5
; Detector type : Unknown
_DETECTORSLIT = unkn
_AUX1 = 0
_AUX2 = 0
_AUX3 = 0
_TIMESTARTED = 15
_TEMP_RATE = -1
_TEMP_DELAY = -1
_KV = 40
_MA = 40
_RANGE_WL = 1.5406
_3DPLANE = 0
_V4_ADDITIONALDETECTOR = 257
_V4_PSD2THETA = 3.3661
_V4_PSDCHANNEL1 = 0
_V4_PSDAPERTURE = 12.68
_V4_PSDTYPE = 5
_V4_PSDFIXED = 0
_V4_COUNTERS_MASK = 4096
_V4_DRIVES_MASK = 0
_V4_ENCODERS_MASK = 0
_2THETACOUNTS = 1
; 2THETA  PSD
   5.0000        259
   5.1858        268
   5.3715        269
   5.5573        224
   5.7430        209
   5.9288        192
   6.1145        184
   6.3003        161
   6.4860        168
   6.6718        166
   6.8576        165
   7.0433        142
   7.2291        152
   7.4148        182
   7.6006        177
   7.7863        166
   7.9721        163
   8.1579        207
   8.3436        189
   8.5294        216
   8.7151        228
   8.9009        222
   9.0866        208
   9.2724        213
   9.4581        230
   9.6439        220
   9.8297        219
  10.0154        243
  10.2012        243
  10.3869        252
  10.5727        244
  10.7584        241
  10.9442        232
  11.1299        239
  11.3157        257
  11.5015        227
  11.6872        251
  11.8730        228
  12.0587        224
  12.2445        228
  12.4302        214
  12.6160        244
  12.8018        222
  12.9875        208
  13.1733        211
  13.3590        195
  13.5448        181
  13.7305        178
  13.9163        181
  14.1020        196
  14.2878        183
  14.4736        195
  14.6593        155
  14.8451        171
  15.0308        155
  15.2166        181
  15.4023        171
  15.5881        181
  15.7738        154
  15.9596        166
  16.1454        170
  16.3311        173
  16.5169        151
  16.7026        168
  16.8884        165
  17.0741        178
  17.2599        169
  17.4457        162
  17.6314        156
  17.8172        190
  18.0029        152
  18.1887        157
  18.3744        178
  18.5602        188
  18.7459        162
  18.9317        178
  19.1175        169
  19.3032        171
  19.4890        189
  19.6747        164
  19.8605        166
  20.0462        176
  20.2320        174
  20.4177        186
  20.6035        150
  20.7893        208
  20.9750        205
  21.1608        216
  21.3465        496
  21.5323        186
  21.7180        189
  21.9038        191
  22.0896        181
  22.2753        192
  22.4611        223
  22.6468        227
  22.8326        217
  23.0183        204
  23.2041        228
  23.3898        197
  23.5756        206
  23.7614        187
  23.9471        190
  24.1329        224
  24.3186        233
  24.5044        170
  24.6901        202
  24.8759        199
  25.0616        195
  25.2474        190
  25.4332        216
  25.6189        223
  25.8047        200
  25.9904        176
  26.1762        184
  26.3619        199
  26.5477        211
  26.7335        192
  26.9192        161
  27.1050        192
  27.2907        210
  27.4765        194
  27.6622        196
  27.8480        185
  28.0337        170
  28.2195        151
  28.4053        155
  28.5910        147
  28.7768        177
  28.9625        165
  29.1483        166
  29.3340        176
  29.5198        149
  29.7055        155
  29.8913        149
  30.0771        145
  30.2628        160
  30.4486        247
  30.6343        144
  30.8201        172
  31.0058        144
  31.1916        144
  31.3774        167
  31.5631        138
  31.7489        114
  31.9346        114
  32.1204        121
  32.3061        140
  32.4919        157
  32.6776        138
  32.8634        152
  33.0492        123
  33.2349        113
  33.4207        113
  33.6064        122
  33.7922        106
  33.9779        104
  34.1637        126
  34.3494        126
  34.5352        122
  34.7210        157
  34.9067        124
  35.0925        112
  35.2782        102
  35.4640         87
  35.6497        105
  35.8355         99
  36.0213         97
  36.2070         89
  36.3928         93
  36.5785         92
  36.7643        103
  36.9500         89
  37.1358        109
  37.3215         91
  37.5073        107
  37.6931        103
  37.8788        103
  38.0646         83
  38.2503         93
  38.4361         75
  38.6218         85
  38.8076         82
  38.9933         97
  39.1791         77
  39.3649         82
  39.5506        105
  39.7364         80
  39.9221         95
  40.1079         85
  40.2936         66
  40.4794         90
  40.6652         81
  40.8509         81
  41.0367         85
  41.2224         75
  41.4082         75
  41.5939         63
  41.7797         71
  41.9654         92
  42.1512         81
  42.3370         67
  42.5227         81
  42.7085         89
  42.8942         91
  43.0800         65
  43.2657        106
  43.4515         79
  43.6372         99
  43.8230         65
  44.0088         51
  44.1945         85
  44.3803         61
  44.5660         85
  44.7518         87
  44.9375         93
  45.1233         61
  45.3091         72
  45.4948         55
  45.6806         56
  45.8663         70
  46.0521         71
  46.2378         71
  46.4236         77
  46.6093         57
  46.7951         74
  46.9809         68
  47.1666         80
  47.3524         62
  47.5381         74
  47.7239         55
  47.9096         59
  48.0954         61
  48.2811         55
  48.4669         62
  48.6527         75
  48.8384         66
  49.0242         75
  49.2099         76
  49.3957         59
  49.5814         71
  49.7672         54
  49.9530         70
  50.1387         73
  50.3245         66
  50.5102         65
  50.6960         59
  50.8817         71
  51.0675         70
  51.2532         75
  51.4390         77
  51.6248         69
  51.8105         57
  51.9963         64
  52.1820         59
  52.3678         63
  52.5535         48
  52.7393         53
  52.9250         64
  53.1108         64
  53.2966         50
  53.4823         39
  53.6681         57
  53.8538         59
  54.0396         50
  54.2253         52
  54.4111         52
  54.5969         59
  54.7826         71
  54.9684         55
  55.1541         55
  55.3399         57
  55.5256         57
  55.7114         51
  55.8971         60
  56.0829         61
  56.2687         52
  56.4544         63
  56.6402         62
  56.8259         47
  57.0117         54
  57.1974         50
  57.3832         55
  57.5689         61
  57.7547         61
  57.9405         59
  58.1262         48
  58.3120         45
  58.4977         64
  58.6835         55
  58.8692         70
  59.0550         47
  59.2408         59
  59.4265         43
  59.6123         44
  59.7980         62
  59.9838         54
  60.0024         60