File: notebooks/data/xrd_data/ML_20220718_23_SJD_4_LaB6-2min.uxd
; (content of file Y:\Sam\Apurva-07-20-2022\puck4\ML_20220718_23_SJD_0_LaB6-2min.raw)
_FILEVERSION = 3
_SAMPLE = ML_20220718_23_SJD_0_LaB6-2min
_+SAMPLE =
_SITE = USA
_USER = Administrator
_GONIOMETER_CODE = 20
; Goniometer : D8 theta/2theta, stage : Unknown
_ATTACHMENTS_CODE = 0
_GONIOMETER_RADIUS = 200.5
_FIXED_DIVSLIT = 0.6
_FIXED_SAMPLESLIT = 0
_SOLLER_SLITS = 2
_FIXED_DETSLIT = 9.55
_MONOCHROMATOR = 0
; Incident beam monochromator : None
_SOLLER_SLITS_2 = N
_THIN_FILM = N
_BETA_FILTER = Y
_FIXED_ANTISLIT = 5.89
_ANALYZER_CODE = 0
; Received beam analyzer : None
_DATEMEASURED = "26-Jul-2022 09:30:21"
_WL_UNIT = A
_WL1 = 1.5406
_WL2 = 1.54439
_WL3 = 1.39222
_WLRATIO = 0.5
_ANODE = Cu
_V4_INF_CREATOR = XRDWizard
_V4_INF_CREATOR_VERSION = V2.9.0.22
_V4_INF_WIZARD_VERSION = V2.9.0.22
_V4_INF_WIZARD_ADDINS = V2.9.0.22
_V4_INF_WIZARD_DOCTYPE = XRD
_V4_INF_OSUSER = McQueenLab
_V4_INF_USER = Administrator
_V4_INF_SITE = USA
_V4_INF_SAMPLEID = ML_20220718_23_SJD_0_LaB6-2min

; Data for range 1
_DRIVE = COUPLED
_STEPTIME = 5.64
_STEPSIZE = 0.0185756
_STEPMODE = C
_START = 5
_THETA = 2.5
_2THETA = 5
_KHI = 0
_PHI = 0
_X = 0
_Y = 0
_Z = 0
_DETECTOR = 5
; Detector type : Unknown
_DETECTORSLIT = unkn
_AUX1 = 0
_AUX2 = 0
_AUX3 = 0
_TIMESTARTED = 15
_TEMP_RATE = -1
_TEMP_DELAY = -1
_KV = 40
_MA = 40
_RANGE_WL = 1.5406
_3DPLANE = 0
_V4_ADDITIONALDETECTOR = 257
_V4_PSD2THETA = 3.3682
_V4_PSDCHANNEL1 = 0
_V4_PSDAPERTURE = 12.68
_V4_PSDTYPE = 5
_V4_PSDFIXED = 0
_V4_COUNTERS_MASK = 4096
_V4_DRIVES_MASK = 0
_V4_ENCODERS_MASK = 0
_2THETACOUNTS = 1
; 2THETA  PSD
   5.0000        146
   5.1858        133
   5.3715        121
   5.5573        108
   5.7430         98
   5.9288         74
   6.1145         86
   6.3003        101
   6.4860         92
   6.6718         95
   6.8576         95
   7.0433         79
   7.2291         82
   7.4148         87
   7.6006         88
   7.7863         98
   7.9721         89
   8.1579         98
   8.3436         97
   8.5294        105
   8.7151        109
   8.9009        101
   9.0866        114
   9.2724        117
   9.4581        121
   9.6439        125
   9.8297        106
  10.0154        112
  10.2012        118
  10.3869        124
  10.5727        137
  10.7584        129
  10.9442        114
  11.1299        110
  11.3157        109
  11.5015        112
  11.6872        135
  11.8730        122
  12.0587        114
  12.2445        105
  12.4302        125
  12.6160        111
  12.8018        102
  12.9875        111
  13.1733        106
  13.3590        101
  13.5448         86
  13.7305        104
  13.9163         93
  14.1020         90
  14.2878         94
  14.4736         87
  14.6593         67
  14.8451         77
  15.0308         80
  15.2166         70
  15.4023         77
  15.5881         65
  15.7738         88
  15.9596         69
  16.1454         76
  16.3311         74
  16.5169         94
  16.7026         79
  16.8884         67
  17.0741         95
  17.2599         68
  17.4457         71
  17.6314         82
  17.8172         74
  18.0029         75
  18.1887         93
  18.3744         59
  18.5602         74
  18.7459         74
  18.9317         87
  19.1175         73
  19.3032         79
  19.4890         85
  19.6747         94
  19.8605         86
  20.0462         87
  20.2320         89
  20.4177         93
  20.6035         92
  20.7893        103
  20.9750         83
  21.1608        109
  21.3465        240
  21.5323        109
  21.7180         94
  21.9038         77
  22.0896         89
  22.2753        117
  22.4611        107
  22.6468         86
  22.8326        105
  23.0183         98
  23.2041         80
  23.3898         91
  23.5756        117
  23.7614         90
  23.9471        111
  24.1329        122
  24.3186        113
  24.5044        106
  24.6901        103
  24.8759        102
  25.0616         92
  25.2474         89
  25.4332         89
  25.6189        112
  25.8047        105
  25.9904         91
  26.1762        101
  26.3619         92
  26.5477        114
  26.7335         93
  26.9192         95
  27.1050         93
  27.2907        108
  27.4765         95
  27.6622         91
  27.8480        100
  28.0337         84
  28.2195         76
  28.4053         87
  28.5910         84
  28.7768         75
  28.9625         87
  29.1483         68
  29.3340         79
  29.5198         80
  29.7055         73
  29.8913         83
  30.0771         66
  30.2628         60
  30.4486        111
  30.6343         82
  30.8201         63
  31.0058         73
  31.1916         60
  31.3774         71
  31.5631         63
  31.7489         65
  31.9346         61
  32.1204         64
  32.3061         63
  32.4919         80
  32.6776         71
  32.8634         60
  33.0492         46
  33.2349         57
  33.4207         47
  33.6064         69
  33.7922         60
  33.9779         57
  34.1637         72
  34.3494         45
  34.5352         52
  34.7210         73
  34.9067         60
  35.0925         48
  35.2782         47
  35.4640         34
  35.6497         50
  35.8355         51
  36.0213         40
  36.2070         53
  36.3928         32
  36.5785         63
  36.7643         42
  36.9500         53
  37.1358         47
  37.3215         53
  37.5073         59
  37.6931         52
  37.8788         47
  38.0646         42
  38.2503         30
  38.4361         47
  38.6218         50
  38.8076         40
  38.9933         46
  39.1791         35
  39.3649         30
  39.5506         35
  39.7364         46
  39.9221         49
  40.1079         38
  40.2936         31
  40.4794         35
  40.6652         44
  40.8509         42
  41.0367         60
  41.2224         45
  41.4082         35
  41.5939         39
  41.7797         48
  41.9654         38
  42.1512         35
  42.3370         35
  42.5227         38
  42.7085         39
  42.8942         37
  43.0800         39
  43.2657         50
  43.4515         47
  43.6372         53
  43.8230         54
  44.0088         33
  44.1945         29
  44.3803         24
  44.5660         34
  44.7518         35
  44.9375         35
  45.1233         39
  45.3091         39
  45.4948         27
  45.6806         31
  45.8663         36
  46.0521         28
  46.2378         39
  46.4236         28
  46.6093         30
  46.7951         28
  46.9809         39
  47.1666         27
  47.3524         30
  47.5381         29
  47.7239         27
  47.9096         29
  48.0954         36
  48.2811         24
  48.4669         20
  48.6527         29
  48.8384         34
  49.0242         35
  49.2099         28
  49.3957         27
  49.5814         28
  49.7672         35
  49.9530         34
  50.1387         27
  50.3245         24
  50.5102         32
  50.6960         28
  50.8817         34
  51.0675         34
  51.2532         27
  51.4390         32
  51.6248         30
  51.8105         35
  51.9963         26
  52.1820         24
  52.3678         20
  52.5535         25
  52.7393         29
  52.9250         25
  53.1108         37
  53.2966         22
  53.4823         21
  53.6681         31
  53.8538         30
  54.0396         29
  54.2253         34
  54.4111         27
  54.5969         33
  54.7826         28
  54.9684         23
  55.1541         20
  55.3399         36
  55.5256         36
  55.7114         30
  55.8971         24
  56.0829         27
  56.2687         37
  56.4544         26
  56.6402         29
  56.8259         28
  57.0117         30
  57.1974         25
  57.3832         34
  57.5689         21
  57.7547         24
  57.9405         25
  58.1262         26
  58.3120         32
  58.4977         34
  58.6835         31
  58.8692         33
  59.0550         25
  59.2408         31
  59.4265         20
  59.6123         28
  59.7980         28
  59.9838         28
  60.0024         22