File: notebooks/data/xrd_data/ML_20220721_25_SJD_4_LaB6-4min.csv
;,2THETA,
5.0000,284
5.1858,267
5.3715,274
5.5573,247
5.7430,221
5.9288,194
6.1145,175
6.3003,193
6.4860,188
6.6718,172
6.8576,168
7.0433,155
7.2291,149
7.4148,186
7.6006,144
7.7863,164
7.9721,172
8.1579,173
8.3436,199
8.5294,194
8.7151,225
8.9009,211
9.0866,222
9.2724,202
9.4581,231
9.6439,228
9.8297,235
10.0154,233
10.2012,234
10.3869,240
10.5727,227
10.7584,234
10.9442,248
11.1299,226
11.3157,271
11.5015,247
11.6872,221
11.8730,198
12.0587,246
12.2445,219
12.4302,213
12.6160,215
12.8018,209
12.9875,219
13.1733,203
13.3590,216
13.5448,181
13.7305,170
13.9163,183
14.1020,198
14.2878,165
14.4736,176
14.6593,145
14.8451,155
15.0308,187
15.2166,166
15.4023,160
15.5881,177
15.7738,143
15.9596,155
16.1454,141
16.3311,164
16.5169,155
16.7026,153
16.8884,152
17.0741,145
17.2599,167
17.4457,169
17.6314,167
17.8172,151
18.0029,160
18.1887,156
18.3744,178
18.5602,172
18.7459,164
18.9317,146
19.1175,196
19.3032,167
19.4890,175
19.6747,142
19.8605,189
20.0462,173
20.2320,204
20.4177,188
20.6035,174
20.7893,191
20.9750,205
21.1608,221
21.3465,453
21.5323,211
21.7180,223
21.9038,179
22.0896,198
22.2753,207
22.4611,195
22.6468,196
22.8326,200
23.0183,205
23.2041,193
23.3898,177
23.5756,196
23.7614,186
23.9471,185
24.1329,190
24.3186,213
24.5044,221
24.6901,202
24.8759,186
25.0616,195
25.2474,205
25.4332,208
25.6189,207
25.8047,186
25.9904,207
26.1762,186
26.3619,202
26.5477,179
26.7335,175
26.9192,203
27.1050,186
27.2907,206
27.4765,192
27.6622,170
27.8480,146
28.0337,182
28.2195,196
28.4053,183
28.5910,189
28.7768,167
28.9625,163
29.1483,154
29.3340,190
29.5198,186
29.7055,185
29.8913,168
30.0771,148
30.2628,163
30.4486,253
30.6343,169
30.8201,156
31.0058,138
31.1916,138
31.3774,113
31.5631,142
31.7489,138
31.9346,126
32.1204,147
32.3061,135
32.4919,164
32.6776,115
32.8634,120
33.0492,108
33.2349,131
33.4207,129
33.6064,123
33.7922,112
33.9779,123
34.1637,107
34.3494,99
34.5352,125
34.7210,158
34.9067,132
35.0925,117
35.2782,101
35.4640,94
35.6497,103
35.8355,98
36.0213,111
36.2070,101
36.3928,82
36.5785,101
36.7643,81
36.9500,100
37.1358,110
37.3215,104
37.5073,117
37.6931,99
37.8788,90
38.0646,94
38.2503,91
38.4361,85
38.6218,93
38.8076,81
38.9933,76
39.1791,68
39.3649,80
39.5506,63
39.7364,83
39.9221,82
40.1079,73
40.2936,80
40.4794,82
40.6652,79
40.8509,80
41.0367,91
41.2224,81
41.4082,84
41.5939,79
41.7797,69
41.9654,72
42.1512,68
42.3370,83
42.5227,65
42.7085,61
42.8942,70
43.0800,73
43.2657,94
43.4515,93
43.6372,107
43.8230,73
44.0088,81
44.1945,67
44.3803,87
44.5660,91
44.7518,67
44.9375,60
45.1233,63
45.3091,79
45.4948,62
45.6806,67
45.8663,70
46.0521,68
46.2378,71
46.4236,64
46.6093,65
46.7951,75
46.9809,63
47.1666,57
47.3524,66
47.5381,65
47.7239,59
47.9096,61
48.0954,74
48.2811,59
48.4669,66
48.6527,72
48.8384,59
49.0242,86
49.2099,62
49.3957,60
49.5814,66
49.7672,61
49.9530,73
50.1387,93
50.3245,56
50.5102,64
50.6960,53
50.8817,58
51.0675,50
51.2532,59
51.4390,71
51.6248,56
51.8105,58
51.9963,76
52.1820,56
52.3678,62
52.5535,65
52.7393,65
52.9250,54
53.1108,76
53.2966,55
53.4823,55
53.6681,52
53.8538,58
54.0396,65
54.2253,59
54.4111,60
54.5969,54
54.7826,58
54.9684,60
55.1541,72
55.3399,55
55.5256,60
55.7114,56
55.8971,69
56.0829,49
56.2687,55
56.4544,52
56.6402,54
56.8259,61
57.0117,54
57.1974,51
57.3832,70
57.5689,47
57.7547,53
57.9405,66
58.1262,50
58.3120,62
58.4977,68
58.6835,49
58.8692,50
59.0550,52
59.2408,59
59.4265,57
59.6123,53
59.7980,36
59.9838,56
60.0024,56