File: notebooks/data/xrd_data/ML_20220720_17_SJD_4_LaB6-1min.uxd
; (content of file Y:\Sam\Apurva-07-20-2022\puck2\ML_20220720_17_SJD_0_LaB6-1min.raw)
_FILEVERSION = 3
_SAMPLE = ML_20220720_17_SJD_0_LaB6-1mi
_+SAMPLE =
_SITE = USA
_USER = Administrator
_GONIOMETER_CODE = 20
; Goniometer : D8 theta/2theta, stage : Unknown
_ATTACHMENTS_CODE = 0
_GONIOMETER_RADIUS = 200.5
_FIXED_DIVSLIT = 0.6
_FIXED_SAMPLESLIT = 0
_SOLLER_SLITS = 2
_FIXED_DETSLIT = 9.55
_MONOCHROMATOR = 0
; Incident beam monochromator : None
_SOLLER_SLITS_2 = N
_THIN_FILM = N
_BETA_FILTER = Y
_FIXED_ANTISLIT = 5.89
_ANALYZER_CODE = 0
; Received beam analyzer : None
_DATEMEASURED = "25-Jul-2022 18:18:02"
_WL_UNIT = A
_WL1 = 1.5406
_WL2 = 1.54439
_WL3 = 1.39222
_WLRATIO = 0.5
_ANODE = Cu
_V4_INF_CREATOR = XRDWizard
_V4_INF_CREATOR_VERSION = V2.9.0.22
_V4_INF_WIZARD_VERSION = V2.9.0.22
_V4_INF_WIZARD_ADDINS = V2.9.0.22
_V4_INF_WIZARD_DOCTYPE = XRD
_V4_INF_OSUSER = McQueenLab
_V4_INF_USER = Administrator
_V4_INF_SITE = USA
_V4_INF_SAMPLEID = ML_20220720_17_SJD_0_LaB6-1mi

; Data for range 1
_DRIVE = COUPLED
_STEPTIME = 4.23
_STEPSIZE = 0.0185756
_STEPMODE = C
_START = 5
_THETA = 2.5
_2THETA = 5
_KHI = 0
_PHI = 0
_X = 0
_Y = 0
_Z = 0
_DETECTOR = 5
; Detector type : Unknown
_DETECTORSLIT = unkn
_AUX1 = 0
_AUX2 = 0
_AUX3 = 0
_TIMESTARTED = 15
_TEMP_RATE = -1
_TEMP_DELAY = -1
_KV = 40
_MA = 40
_RANGE_WL = 1.5406
_3DPLANE = 0
_V4_ADDITIONALDETECTOR = 257
_V4_PSD2THETA = 3.4387
_V4_PSDCHANNEL1 = 0
_V4_PSDAPERTURE = 12.68
_V4_PSDTYPE = 5
_V4_PSDFIXED = 0
_V4_COUNTERS_MASK = 4096
_V4_DRIVES_MASK = 0
_V4_ENCODERS_MASK = 0
_2THETACOUNTS = 1
; 2THETA  PSD
   5.0000        104
   5.1858         88
   5.3715         69
   5.5573         98
   5.7430         92
   5.9288         63
   6.1145         71
   6.3003         71
   6.4860         65
   6.6718         66
   6.8576         75
   7.0433         64
   7.2291         56
   7.4148         63
   7.6006         67
   7.7863         68
   7.9721         81
   8.1579         71
   8.3436         48
   8.5294         64
   8.7151         84
   8.9009         83
   9.0866         71
   9.2724         55
   9.4581         61
   9.6439         80
   9.8297         84
  10.0154         86
  10.2012         95
  10.3869         90
  10.5727        101
  10.7584         93
  10.9442         80
  11.1299         92
  11.3157         89
  11.5015         70
  11.6872         99
  11.8730        112
  12.0587         80
  12.2445         82
  12.4302         77
  12.6160         67
  12.8018         70
  12.9875         67
  13.1733         78
  13.3590         68
  13.5448         88
  13.7305         85
  13.9163         73
  14.1020         71
  14.2878         62
  14.4736         65
  14.6593         55
  14.8451         58
  15.0308         58
  15.2166         55
  15.4023         64
  15.5881         45
  15.7738         54
  15.9596         47
  16.1454         59
  16.3311         67
  16.5169         44
  16.7026         70
  16.8884         65
  17.0741         60
  17.2599         59
  17.4457         57
  17.6314         65
  17.8172         70
  18.0029         74
  18.1887         61
  18.3744         61
  18.5602         56
  18.7459         53
  18.9317         59
  19.1175         74
  19.3032         68
  19.4890         71
  19.6747         58
  19.8605         63
  20.0462         72
  20.2320         71
  20.4177         78
  20.6035         61
  20.7893         54
  20.9750         82
  21.1608         77
  21.3465        195
  21.5323         80
  21.7180         63
  21.9038         71
  22.0896         68
  22.2753         62
  22.4611         84
  22.6468         63
  22.8326         84
  23.0183         88
  23.2041         87
  23.3898         70
  23.5756         58
  23.7614         79
  23.9471         73
  24.1329         86
  24.3186         84
  24.5044         78
  24.6901         81
  24.8759         83
  25.0616         75
  25.2474         80
  25.4332         74
  25.6189         63
  25.8047         73
  25.9904         66
  26.1762         61
  26.3619         66
  26.5477         62
  26.7335         57
  26.9192         62
  27.1050         80
  27.2907         72
  27.4765         67
  27.6622         67
  27.8480         61
  28.0337         67
  28.2195         71
  28.4053         63
  28.5910         59
  28.7768         53
  28.9625         56
  29.1483         73
  29.3340         58
  29.5198         55
  29.7055         55
  29.8913         55
  30.0771         43
  30.2628         78
  30.4486         85
  30.6343         72
  30.8201         52
  31.0058         47
  31.1916         51
  31.3774         43
  31.5631         51
  31.7489         43
  31.9346         44
  32.1204         45
  32.3061         67
  32.4919         52
  32.6776         54
  32.8634         48
  33.0492         54
  33.2349         40
  33.4207         48
  33.6064         55
  33.7922         38
  33.9779         39
  34.1637         57
  34.3494         49
  34.5352         48
  34.7210         52
  34.9067         45
  35.0925         32
  35.2782         38
  35.4640         45
  35.6497         32
  35.8355         26
  36.0213         32
  36.2070         33
  36.3928         36
  36.5785         26
  36.7643         42
  36.9500         26
  37.1358         38
  37.3215         33
  37.5073         40
  37.6931         29
  37.8788         40
  38.0646         26
  38.2503         22
  38.4361         26
  38.6218         26
  38.8076         35
  38.9933         33
  39.1791         27
  39.3649         28
  39.5506         29
  39.7364         26
  39.9221         18
  40.1079         33
  40.2936         26
  40.4794         26
  40.6652         28
  40.8509         23
  41.0367         27
  41.2224         34
  41.4082         26
  41.5939         34
  41.7797         17
  41.9654         24
  42.1512         28
  42.3370         30
  42.5227         27
  42.7085         20
  42.8942         31
  43.0800         28
  43.2657         28
  43.4515         40
  43.6372         29
  43.8230         26
  44.0088         28
  44.1945         32
  44.3803         28
  44.5660         30
  44.7518         29
  44.9375         36
  45.1233         33
  45.3091         24
  45.4948         19
  45.6806         24
  45.8663         31
  46.0521         24
  46.2378         37
  46.4236         24
  46.6093         23
  46.7951         31
  46.9809         26
  47.1666         16
  47.3524         24
  47.5381         25
  47.7239         25
  47.9096         27
  48.0954         22
  48.2811         17
  48.4669         24
  48.6527         25
  48.8384         30
  49.0242         29
  49.2099         24
  49.3957         29
  49.5814         14
  49.7672         27
  49.9530         28
  50.1387         26
  50.3245         13
  50.5102         23
  50.6960         16
  50.8817         24
  51.0675         25
  51.2532         29
  51.4390         25
  51.6248         24
  51.8105         30
  51.9963         33
  52.1820         12
  52.3678         20
  52.5535         22
  52.7393         24
  52.9250         24
  53.1108         22
  53.2966         25
  53.4823         21
  53.6681         28
  53.8538         21
  54.0396         32
  54.2253         24
  54.4111         21
  54.5969         23
  54.7826         19
  54.9684         26
  55.1541         22
  55.3399         25
  55.5256         18
  55.7114         25
  55.8971         17
  56.0829         20
  56.2687         23
  56.4544         16
  56.6402         15
  56.8259         18
  57.0117         21
  57.1974         27
  57.3832         30
  57.5689         23
  57.7547         13
  57.9405         24
  58.1262         24
  58.3120         17
  58.4977         26
  58.6835         24
  58.8692         13
  59.0550         25
  59.2408         13
  59.4265         26
  59.6123         21
  59.7980         23
  59.9838         22
  60.0024         25