File: notebooks/data/xrd_data/ML_20220721_23_SJD_4_LaB6-4min.uxd
; (content of file Y:\Sam\Apurva-07-20-2022\puck1\ML_20220721_23_SJD_0_LaB6-4min.raw)
_FILEVERSION = 3
_SAMPLE = ML_20220721_23_SJD_0_LaB6-4min
_+SAMPLE =
_SITE = USA
_USER = Administrator
_GONIOMETER_CODE = 20
; Goniometer : D8 theta/2theta, stage : Unknown
_ATTACHMENTS_CODE = 0
_GONIOMETER_RADIUS = 200.5
_FIXED_DIVSLIT = 0.6
_FIXED_SAMPLESLIT = 0
_SOLLER_SLITS = 2
_FIXED_DETSLIT = 9.55
_MONOCHROMATOR = 0
; Incident beam monochromator : None
_SOLLER_SLITS_2 = N
_THIN_FILM = N
_BETA_FILTER = Y
_FIXED_ANTISLIT = 5.89
_ANALYZER_CODE = 0
; Received beam analyzer : None
_DATEMEASURED = "25-Jul-2022 15:35:39"
_WL_UNIT = A
_WL1 = 1.5406
_WL2 = 1.54439
_WL3 = 1.39222
_WLRATIO = 0.5
_ANODE = Cu
_V4_INF_CREATOR = XRDWizard
_V4_INF_CREATOR_VERSION = V2.9.0.22
_V4_INF_WIZARD_VERSION = V2.9.0.22
_V4_INF_WIZARD_ADDINS = V2.9.0.22
_V4_INF_WIZARD_DOCTYPE = XRD
_V4_INF_OSUSER = McQueenLab
_V4_INF_USER = Administrator
_V4_INF_SITE = USA
_V4_INF_SAMPLEID = ML_20220721_23_SJD_0_LaB6-4min

; Data for range 1
_DRIVE = COUPLED
_STEPTIME = 11.28
_STEPSIZE = 0.0185756
_STEPMODE = C
_START = 5
_THETA = 2.5
_2THETA = 5
_KHI = 0
_PHI = 0
_X = 0
_Y = 0
_Z = 0
_DETECTOR = 5
; Detector type : Unknown
_DETECTORSLIT = unkn
_AUX1 = 0
_AUX2 = 0
_AUX3 = 0
_TIMESTARTED = 15
_TEMP_RATE = -1
_TEMP_DELAY = -1
_KV = 40
_MA = 40
_RANGE_WL = 1.5406
_3DPLANE = 0
_V4_ADDITIONALDETECTOR = 257
_V4_PSD2THETA = 3.365
_V4_PSDCHANNEL1 = 0
_V4_PSDAPERTURE = 12.68
_V4_PSDTYPE = 5
_V4_PSDFIXED = 0
_V4_COUNTERS_MASK = 4096
_V4_DRIVES_MASK = 0
_V4_ENCODERS_MASK = 0
_2THETACOUNTS = 1
; 2THETA  PSD
   5.0000        286
   5.1858        277
   5.3715        215
   5.5573        253
   5.7430        226
   5.9288        219
   6.1145        199
   6.3003        196
   6.4860        172
   6.6718        176
   6.8576        154
   7.0433        167
   7.2291        186
   7.4148        186
   7.6006        150
   7.7863        173
   7.9721        197
   8.1579        208
   8.3436        190
   8.5294        176
   8.7151        208
   8.9009        215
   9.0866        229
   9.2724        220
   9.4581        234
   9.6439        236
   9.8297        239
  10.0154        227
  10.2012        239
  10.3869        240
  10.5727        244
  10.7584        238
  10.9442        226
  11.1299        233
  11.3157        256
  11.5015        239
  11.6872        250
  11.8730        240
  12.0587        238
  12.2445        224
  12.4302        194
  12.6160        211
  12.8018        237
  12.9875        222
  13.1733        209
  13.3590        236
  13.5448        183
  13.7305        167
  13.9163        193
  14.1020        177
  14.2878        188
  14.4736        185
  14.6593        161
  14.8451        172
  15.0308        149
  15.2166        156
  15.4023        161
  15.5881        190
  15.7738        174
  15.9596        164
  16.1454        160
  16.3311        144
  16.5169        192
  16.7026        147
  16.8884        169
  17.0741        149
  17.2599        173
  17.4457        188
  17.6314        176
  17.8172        167
  18.0029        173
  18.1887        151
  18.3744        161
  18.5602        182
  18.7459        159
  18.9317        179
  19.1175        173
  19.3032        159
  19.4890        172
  19.6747        179
  19.8605        176
  20.0462        183
  20.2320        183
  20.4177        197
  20.6035        192
  20.7893        195
  20.9750        192
  21.1608        248
  21.3465        507
  21.5323        209
  21.7180        194
  21.9038        194
  22.0896        201
  22.2753        202
  22.4611        189
  22.6468        177
  22.8326        183
  23.0183        207
  23.2041        189
  23.3898        186
  23.5756        200
  23.7614        233
  23.9471        225
  24.1329        217
  24.3186        235
  24.5044        199
  24.6901        207
  24.8759        208
  25.0616        216
  25.2474        198
  25.4332        182
  25.6189        206
  25.8047        223
  25.9904        189
  26.1762        198
  26.3619        190
  26.5477        191
  26.7335        190
  26.9192        183
  27.1050        207
  27.2907        225
  27.4765        187
  27.6622        177
  27.8480        182
  28.0337        178
  28.2195        147
  28.4053        177
  28.5910        155
  28.7768        163
  28.9625        182
  29.1483        186
  29.3340        156
  29.5198        172
  29.7055        171
  29.8913        172
  30.0771        167
  30.2628        144
  30.4486        234
  30.6343        138
  30.8201        153
  31.0058        141
  31.1916        141
  31.3774        149
  31.5631        131
  31.7489        135
  31.9346        129
  32.1204        137
  32.3061        140
  32.4919        155
  32.6776        140
  32.8634        130
  33.0492        119
  33.2349        141
  33.4207        116
  33.6064        137
  33.7922        109
  33.9779        134
  34.1637        118
  34.3494        135
  34.5352        124
  34.7210        146
  34.9067        135
  35.0925        111
  35.2782        103
  35.4640         91
  35.6497         98
  35.8355        104
  36.0213        115
  36.2070        106
  36.3928         99
  36.5785         84
  36.7643        103
  36.9500         95
  37.1358         80
  37.3215         77
  37.5073         96
  37.6931         84
  37.8788         78
  38.0646         77
  38.2503         85
  38.4361         87
  38.6218         99
  38.8076         77
  38.9933         99
  39.1791         88
  39.3649         87
  39.5506         81
  39.7364         85
  39.9221         89
  40.1079         80
  40.2936         89
  40.4794         79
  40.6652         85
  40.8509         82
  41.0367         89
  41.2224         71
  41.4082         71
  41.5939         85
  41.7797         72
  41.9654         74
  42.1512         69
  42.3370         76
  42.5227         68
  42.7085         73
  42.8942         72
  43.0800         79
  43.2657         77
  43.4515         90
  43.6372        104
  43.8230         84
  44.0088         86
  44.1945         76
  44.3803         67
  44.5660         87
  44.7518         76
  44.9375         67
  45.1233         69
  45.3091         70
  45.4948         65
  45.6806         68
  45.8663         68
  46.0521         62
  46.2378         82
  46.4236         53
  46.6093         61
  46.7951         65
  46.9809         74
  47.1666         54
  47.3524         65
  47.5381         65
  47.7239         71
  47.9096         70
  48.0954         65
  48.2811         73
  48.4669         64
  48.6527         66
  48.8384         70
  49.0242         82
  49.2099         75
  49.3957         64
  49.5814         56
  49.7672         67
  49.9530         63
  50.1387         57
  50.3245         64
  50.5102         59
  50.6960         55
  50.8817         62
  51.0675         60
  51.2532         71
  51.4390         71
  51.6248         64
  51.8105         68
  51.9963         67
  52.1820         44
  52.3678         60
  52.5535         53
  52.7393         53
  52.9250         69
  53.1108         54
  53.2966         57
  53.4823         67
  53.6681         60
  53.8538         61
  54.0396         83
  54.2253         59
  54.4111         62
  54.5969         48
  54.7826         68
  54.9684         56
  55.1541         60
  55.3399         49
  55.5256         46
  55.7114         59
  55.8971         49
  56.0829         64
  56.2687         59
  56.4544         60
  56.6402         43
  56.8259         62
  57.0117         55
  57.1974         51
  57.3832         45
  57.5689         55
  57.7547         73
  57.9405         46
  58.1262         64
  58.3120         67
  58.4977         47
  58.6835         54
  58.8692         48
  59.0550         49
  59.2408         45
  59.4265         50
  59.6123         60
  59.7980         44
  59.9838         49
  60.0024         52