File: notebooks/data/xrd_data/ML_20220721_14_SJD_4_LaB6-4min.uxd
; (content of file Y:\Sam\Apurva-07-20-2022\puck1\ML_20220721_14_SJD_0_LaB6-4min.raw)
_FILEVERSION = 3
_SAMPLE = ML_20220721_14_SJD_0_LaB6-4min
_+SAMPLE =
_SITE = USA
_USER = Administrator
_GONIOMETER_CODE = 20
; Goniometer : D8 theta/2theta, stage : Unknown
_ATTACHMENTS_CODE = 0
_GONIOMETER_RADIUS = 200.5
_FIXED_DIVSLIT = 0.6
_FIXED_SAMPLESLIT = 0
_SOLLER_SLITS = 2
_FIXED_DETSLIT = 9.55
_MONOCHROMATOR = 0
; Incident beam monochromator : None
_SOLLER_SLITS_2 = N
_THIN_FILM = N
_BETA_FILTER = Y
_FIXED_ANTISLIT = 5.89
_ANALYZER_CODE = 0
; Received beam analyzer : None
_DATEMEASURED = "25-Jul-2022 14:55:21"
_WL_UNIT = A
_WL1 = 1.5406
_WL2 = 1.54439
_WL3 = 1.39222
_WLRATIO = 0.5
_ANODE = Cu
_V4_INF_CREATOR = XRDWizard
_V4_INF_CREATOR_VERSION = V2.9.0.22
_V4_INF_WIZARD_VERSION = V2.9.0.22
_V4_INF_WIZARD_ADDINS = V2.9.0.22
_V4_INF_WIZARD_DOCTYPE = XRD
_V4_INF_OSUSER = McQueenLab
_V4_INF_USER = Administrator
_V4_INF_SITE = USA
_V4_INF_SAMPLEID = ML_20220721_14_SJD_0_LaB6-4min

; Data for range 1
_DRIVE = COUPLED
_STEPTIME = 11.28
_STEPSIZE = 0.0185756
_STEPMODE = C
_START = 5
_THETA = 2.5
_2THETA = 5
_KHI = 0
_PHI = 0
_X = 0
_Y = 0
_Z = 0
_DETECTOR = 5
; Detector type : Unknown
_DETECTORSLIT = unkn
_AUX1 = 0
_AUX2 = 0
_AUX3 = 0
_TIMESTARTED = 15
_TEMP_RATE = -1
_TEMP_DELAY = -1
_KV = 40
_MA = 40
_RANGE_WL = 1.5406
_3DPLANE = 0
_V4_ADDITIONALDETECTOR = 257
_V4_PSD2THETA = 3.3888
_V4_PSDCHANNEL1 = 0
_V4_PSDAPERTURE = 12.68
_V4_PSDTYPE = 5
_V4_PSDFIXED = 0
_V4_COUNTERS_MASK = 4096
_V4_DRIVES_MASK = 0
_V4_ENCODERS_MASK = 0
_2THETACOUNTS = 1
; 2THETA  PSD
   5.0000        285
   5.1858        240
   5.3715        229
   5.5573        192
   5.7430        225
   5.9288        235
   6.1145        168
   6.3003        197
   6.4860        206
   6.6718        146
   6.8576        175
   7.0433        182
   7.2291        165
   7.4148        169
   7.6006        184
   7.7863        172
   7.9721        194
   8.1579        190
   8.3436        186
   8.5294        213
   8.7151        198
   8.9009        239
   9.0866        227
   9.2724        228
   9.4581        219
   9.6439        219
   9.8297        262
  10.0154        230
  10.2012        239
  10.3869        224
  10.5727        237
  10.7584        279
  10.9442        224
  11.1299        222
  11.3157        257
  11.5015        250
  11.6872        233
  11.8730        241
  12.0587        239
  12.2445        236
  12.4302        197
  12.6160        210
  12.8018        222
  12.9875        224
  13.1733        192
  13.3590        213
  13.5448        194
  13.7305        195
  13.9163        207
  14.1020        168
  14.2878        197
  14.4736        180
  14.6593        162
  14.8451        163
  15.0308        164
  15.2166        150
  15.4023        154
  15.5881        144
  15.7738        181
  15.9596        166
  16.1454        160
  16.3311        150
  16.5169        143
  16.7026        150
  16.8884        159
  17.0741        133
  17.2599        172
  17.4457        155
  17.6314        159
  17.8172        167
  18.0029        184
  18.1887        197
  18.3744        169
  18.5602        180
  18.7459        168
  18.9317        159
  19.1175        156
  19.3032        172
  19.4890        182
  19.6747        166
  19.8605        156
  20.0462        171
  20.2320        219
  20.4177        197
  20.6035        167
  20.7893        174
  20.9750        171
  21.1608        238
  21.3465        510
  21.5323        206
  21.7180        189
  21.9038        198
  22.0896        186
  22.2753        199
  22.4611        215
  22.6468        175
  22.8326        212
  23.0183        211
  23.2041        183
  23.3898        208
  23.5756        209
  23.7614        186
  23.9471        198
  24.1329        209
  24.3186        223
  24.5044        219
  24.6901        208
  24.8759        206
  25.0616        222
  25.2474        173
  25.4332        214
  25.6189        175
  25.8047        199
  25.9904        199
  26.1762        193
  26.3619        172
  26.5477        180
  26.7335        196
  26.9192        178
  27.1050        196
  27.2907        200
  27.4765        184
  27.6622        177
  27.8480        183
  28.0337        160
  28.2195        188
  28.4053        160
  28.5910        164
  28.7768        167
  28.9625        176
  29.1483        192
  29.3340        138
  29.5198        166
  29.7055        166
  29.8913        159
  30.0771        131
  30.2628        150
  30.4486        235
  30.6343        161
  30.8201        155
  31.0058        143
  31.1916        142
  31.3774        162
  31.5631        116
  31.7489        129
  31.9346        135
  32.1204        142
  32.3061        162
  32.4919        159
  32.6776        125
  32.8634        135
  33.0492        134
  33.2349        146
  33.4207        124
  33.6064        123
  33.7922        125
  33.9779        121
  34.1637        113
  34.3494         99
  34.5352        112
  34.7210        148
  34.9067        126
  35.0925        132
  35.2782        112
  35.4640        103
  35.6497        109
  35.8355        118
  36.0213         99
  36.2070        101
  36.3928        117
  36.5785         81
  36.7643         82
  36.9500         98
  37.1358         99
  37.3215        105
  37.5073        111
  37.6931         80
  37.8788        111
  38.0646         73
  38.2503         79
  38.4361         82
  38.6218        100
  38.8076         81
  38.9933         80
  39.1791         94
  39.3649         81
  39.5506         95
  39.7364         68
  39.9221         63
  40.1079         77
  40.2936         81
  40.4794         73
  40.6652         61
  40.8509         68
  41.0367         75
  41.2224         78
  41.4082         91
  41.5939         69
  41.7797         70
  41.9654         76
  42.1512         78
  42.3370         82
  42.5227         70
  42.7085         62
  42.8942         76
  43.0800         88
  43.2657         93
  43.4515         71
  43.6372        115
  43.8230         67
  44.0088         67
  44.1945         69
  44.3803         83
  44.5660         85
  44.7518         86
  44.9375         67
  45.1233         79
  45.3091         82
  45.4948         55
  45.6806         72
  45.8663         60
  46.0521         68
  46.2378         69
  46.4236         63
  46.6093         56
  46.7951         73
  46.9809         85
  47.1666         63
  47.3524         68
  47.5381         60
  47.7239         64
  47.9096         59
  48.0954         59
  48.2811         68
  48.4669         61
  48.6527         67
  48.8384         63
  49.0242         71
  49.2099         72
  49.3957         62
  49.5814         59
  49.7672         52
  49.9530         68
  50.1387         63
  50.3245         66
  50.5102         63
  50.6960         68
  50.8817         57
  51.0675         64
  51.2532         66
  51.4390         53
  51.6248         59
  51.8105         75
  51.9963         58
  52.1820         47
  52.3678         54
  52.5535         53
  52.7393         59
  52.9250         61
  53.1108         61
  53.2966         65
  53.4823         43
  53.6681         69
  53.8538         66
  54.0396         55
  54.2253         60
  54.4111         62
  54.5969         57
  54.7826         52
  54.9684         57
  55.1541         61
  55.3399         46
  55.5256         48
  55.7114         48
  55.8971         71
  56.0829         54
  56.2687         66
  56.4544         56
  56.6402         58
  56.8259         49
  57.0117         58
  57.1974         56
  57.3832         59
  57.5689         56
  57.7547         67
  57.9405         57
  58.1262         57
  58.3120         65
  58.4977         60
  58.6835         56
  58.8692         53
  59.0550         50
  59.2408         45
  59.4265         62
  59.6123         54
  59.7980         60
  59.9838         60
  60.0024         59