File: notebooks/data/xrd_data/ML_20220718_40_SJD_4_LaB6-1min.uxd
; (content of file Y:\Sam\Apurva-07-20-2022\puck4\ML_20220718_40_SJD_4_LaB6-1min.raw)
_FILEVERSION = 3
_SAMPLE = ML_20220718_40_SJD_4_LaB6-1min
_+SAMPLE =
_SITE = USA
_USER = Administrator
_GONIOMETER_CODE = 20
; Goniometer : D8 theta/2theta, stage : Unknown
_ATTACHMENTS_CODE = 0
_GONIOMETER_RADIUS = 200.5
_FIXED_DIVSLIT = 0.6
_FIXED_SAMPLESLIT = 0
_SOLLER_SLITS = 2
_FIXED_DETSLIT = 9.55
_MONOCHROMATOR = 0
; Incident beam monochromator : None
_SOLLER_SLITS_2 = N
_THIN_FILM = N
_BETA_FILTER = Y
_FIXED_ANTISLIT = 5.89
_ANALYZER_CODE = 0
; Received beam analyzer : None
_DATEMEASURED = "26-Jul-2022 10:30:39"
_WL_UNIT = A
_WL1 = 1.5406
_WL2 = 1.54439
_WL3 = 1.39222
_WLRATIO = 0.5
_ANODE = Cu
_V4_INF_CREATOR = XRDWizard
_V4_INF_CREATOR_VERSION = V2.9.0.22
_V4_INF_WIZARD_VERSION = V2.9.0.22
_V4_INF_WIZARD_ADDINS = V2.9.0.22
_V4_INF_WIZARD_DOCTYPE = XRD
_V4_INF_OSUSER = McQueenLab
_V4_INF_USER = Administrator
_V4_INF_SITE = USA
_V4_INF_SAMPLEID = ML_20220718_40_SJD_4_LaB6-1min

; Data for range 1
_DRIVE = COUPLED
_STEPTIME = 4.23
_STEPSIZE = 0.0185756
_STEPMODE = C
_START = 5
_THETA = 2.5
_2THETA = 5
_KHI = 0
_PHI = 0
_X = 0
_Y = 0
_Z = 0
_DETECTOR = 5
; Detector type : Unknown
_DETECTORSLIT = unkn
_AUX1 = 0
_AUX2 = 0
_AUX3 = 0
_TIMESTARTED = 15
_TEMP_RATE = -1
_TEMP_DELAY = -1
_KV = 40
_MA = 40
_RANGE_WL = 1.5406
_3DPLANE = 0
_V4_ADDITIONALDETECTOR = 257
_V4_PSD2THETA = 3.3738
_V4_PSDCHANNEL1 = 0
_V4_PSDAPERTURE = 12.68
_V4_PSDTYPE = 5
_V4_PSDFIXED = 0
_V4_COUNTERS_MASK = 4096
_V4_DRIVES_MASK = 0
_V4_ENCODERS_MASK = 0
_2THETACOUNTS = 1
; 2THETA  PSD
   5.0000        100
   5.1858         95
   5.3715         74
   5.5573         86
   5.7430         77
   5.9288         83
   6.1145         78
   6.3003         82
   6.4860         73
   6.6718         61
   6.8576         63
   7.0433         49
   7.2291         59
   7.4148         49
   7.6006         59
   7.7863         60
   7.9721         61
   8.1579         65
   8.3436         78
   8.5294         78
   8.7151         73
   8.9009         68
   9.0866         71
   9.2724         79
   9.4581         83
   9.6439         84
   9.8297         86
  10.0154         87
  10.2012        106
  10.3869         73
  10.5727         94
  10.7584         92
  10.9442         94
  11.1299         90
  11.3157         73
  11.5015         89
  11.6872         96
  11.8730         76
  12.0587         87
  12.2445         86
  12.4302         90
  12.6160         84
  12.8018         76
  12.9875         81
  13.1733         83
  13.3590         74
  13.5448         63
  13.7305         64
  13.9163         65
  14.1020         63
  14.2878         74
  14.4736         55
  14.6593         58
  14.8451         60
  15.0308         64
  15.2166         55
  15.4023         54
  15.5881         59
  15.7738         59
  15.9596         61
  16.1454         49
  16.3311         72
  16.5169         64
  16.7026         74
  16.8884         66
  17.0741         52
  17.2599         77
  17.4457         62
  17.6314         64
  17.8172         66
  18.0029         51
  18.1887         48
  18.3744         58
  18.5602         53
  18.7459         60
  18.9317         61
  19.1175         61
  19.3032         58
  19.4890         78
  19.6747         52
  19.8605         69
  20.0462         68
  20.2320         61
  20.4177         72
  20.6035         82
  20.7893         60
  20.9750         57
  21.1608         73
  21.3465        164
  21.5323         73
  21.7180         70
  21.9038         91
  22.0896         65
  22.2753         70
  22.4611         91
  22.6468         84
  22.8326         68
  23.0183         74
  23.2041         87
  23.3898         63
  23.5756         76
  23.7614         79
  23.9471         71
  24.1329         68
  24.3186         79
  24.5044         90
  24.6901         54
  24.8759         72
  25.0616         67
  25.2474         81
  25.4332         57
  25.6189         71
  25.8047         58
  25.9904         78
  26.1762         66
  26.3619         71
  26.5477         69
  26.7335         84
  26.9192         78
  27.1050         67
  27.2907         76
  27.4765         65
  27.6622         70
  27.8480         82
  28.0337         69
  28.2195         50
  28.4053         71
  28.5910         58
  28.7768         51
  28.9625         63
  29.1483         60
  29.3340         58
  29.5198         49
  29.7055         51
  29.8913         56
  30.0771         59
  30.2628         63
  30.4486        105
  30.6343         54
  30.8201         54
  31.0058         47
  31.1916         44
  31.3774         48
  31.5631         59
  31.7489         47
  31.9346         57
  32.1204         46
  32.3061         49
  32.4919         60
  32.6776         41
  32.8634         38
  33.0492         62
  33.2349         46
  33.4207         47
  33.6064         46
  33.7922         46
  33.9779         36
  34.1637         45
  34.3494         40
  34.5352         30
  34.7210         42
  34.9067         35
  35.0925         36
  35.2782         54
  35.4640         34
  35.6497         50
  35.8355         31
  36.0213         39
  36.2070         46
  36.3928         40
  36.5785         41
  36.7643         39
  36.9500         23
  37.1358         35
  37.3215         37
  37.5073         51
  37.6931         42
  37.8788         28
  38.0646         40
  38.2503         30
  38.4361         26
  38.6218         40
  38.8076         25
  38.9933         30
  39.1791         35
  39.3649         36
  39.5506         25
  39.7364         28
  39.9221         24
  40.1079         33
  40.2936         36
  40.4794         31
  40.6652         25
  40.8509         28
  41.0367         21
  41.2224         26
  41.4082         22
  41.5939         28
  41.7797         17
  41.9654         35
  42.1512         26
  42.3370         34
  42.5227         35
  42.7085         26
  42.8942         28
  43.0800         22
  43.2657         32
  43.4515         41
  43.6372         31
  43.8230         25
  44.0088         26
  44.1945         29
  44.3803         35
  44.5660         36
  44.7518         28
  44.9375         16
  45.1233         16
  45.3091         25
  45.4948         18
  45.6806         27
  45.8663         27
  46.0521         23
  46.2378         21
  46.4236         26
  46.6093         36
  46.7951         28
  46.9809         26
  47.1666         23
  47.3524         23
  47.5381         19
  47.7239         23
  47.9096         32
  48.0954         24
  48.2811         23
  48.4669         29
  48.6527         23
  48.8384         20
  49.0242         22
  49.2099         22
  49.3957         28
  49.5814         26
  49.7672         30
  49.9530         28
  50.1387         28
  50.3245         29
  50.5102         18
  50.6960         19
  50.8817         18
  51.0675         23
  51.2532         16
  51.4390         23
  51.6248         22
  51.8105         25
  51.9963         17
  52.1820         28
  52.3678         20
  52.5535         27
  52.7393         23
  52.9250         28
  53.1108         26
  53.2966         14
  53.4823         20
  53.6681         17
  53.8538         20
  54.0396         24
  54.2253         26
  54.4111         18
  54.5969         17
  54.7826         26
  54.9684         27
  55.1541         22
  55.3399         20
  55.5256         21
  55.7114         25
  55.8971         25
  56.0829         17
  56.2687         21
  56.4544         22
  56.6402         13
  56.8259         17
  57.0117         20
  57.1974         20
  57.3832         13
  57.5689         14
  57.7547         14
  57.9405         22
  58.1262         23
  58.3120         16
  58.4977         22
  58.6835         19
  58.8692         17
  59.0550         25
  59.2408         16
  59.4265         19
  59.6123         24
  59.7980         17
  59.9838         22
  60.0024         24