File: notebooks/data/xrd_data/ML_20220718_56_SJD_4_LaB6-1min.uxd
; (content of file Y:\Sam\Apurva-07-20-2022\puck4\ML_20220718_56_SJD_4_LaB6-1min.raw)
_FILEVERSION = 3
_SAMPLE = ML_20220718_56_SJD_4_LaB6-1min
_+SAMPLE =
_SITE = USA
_USER = Administrator
_GONIOMETER_CODE = 20
; Goniometer : D8 theta/2theta, stage : Unknown
_ATTACHMENTS_CODE = 0
_GONIOMETER_RADIUS = 200.5
_FIXED_DIVSLIT = 0.6
_FIXED_SAMPLESLIT = 0
_SOLLER_SLITS = 2
_FIXED_DETSLIT = 9.55
_MONOCHROMATOR = 0
; Incident beam monochromator : None
_SOLLER_SLITS_2 = N
_THIN_FILM = N
_BETA_FILTER = Y
_FIXED_ANTISLIT = 5.89
_ANALYZER_CODE = 0
; Received beam analyzer : None
_DATEMEASURED = "26-Jul-2022 11:00:35"
_WL_UNIT = A
_WL1 = 1.5406
_WL2 = 1.54439
_WL3 = 1.39222
_WLRATIO = 0.5
_ANODE = Cu
_V4_INF_CREATOR = XRDWizard
_V4_INF_CREATOR_VERSION = V2.9.0.22
_V4_INF_WIZARD_VERSION = V2.9.0.22
_V4_INF_WIZARD_ADDINS = V2.9.0.22
_V4_INF_WIZARD_DOCTYPE = XRD
_V4_INF_OSUSER = McQueenLab
_V4_INF_USER = Administrator
_V4_INF_SITE = USA
_V4_INF_SAMPLEID = ML_20220718_56_SJD_4_LaB6-1min

; Data for range 1
_DRIVE = COUPLED
_STEPTIME = 4.23
_STEPSIZE = 0.0185756
_STEPMODE = C
_START = 5
_THETA = 2.5
_2THETA = 5
_KHI = 0
_PHI = 0
_X = 0
_Y = 0
_Z = 0
_DETECTOR = 5
; Detector type : Unknown
_DETECTORSLIT = unkn
_AUX1 = 0
_AUX2 = 0
_AUX3 = 0
_TIMESTARTED = 15
_TEMP_RATE = -1
_TEMP_DELAY = -1
_KV = 40
_MA = 40
_RANGE_WL = 1.5406
_3DPLANE = 0
_V4_ADDITIONALDETECTOR = 257
_V4_PSD2THETA = 3.3771
_V4_PSDCHANNEL1 = 0
_V4_PSDAPERTURE = 12.68
_V4_PSDTYPE = 5
_V4_PSDFIXED = 0
_V4_COUNTERS_MASK = 4096
_V4_DRIVES_MASK = 0
_V4_ENCODERS_MASK = 0
_2THETACOUNTS = 1
; 2THETA  PSD
   5.0000         99
   5.1858        102
   5.3715         81
   5.5573         89
   5.7430         92
   5.9288         66
   6.1145         73
   6.3003         74
   6.4860         66
   6.6718         61
   6.8576         70
   7.0433         63
   7.2291         77
   7.4148         61
   7.6006         65
   7.7863         66
   7.9721         63
   8.1579         67
   8.3436         87
   8.5294         72
   8.7151         64
   8.9009         82
   9.0866         65
   9.2724         92
   9.4581         80
   9.6439         95
   9.8297         80
  10.0154         98
  10.2012        100
  10.3869         70
  10.5727         91
  10.7584         93
  10.9442        104
  11.1299        117
  11.3157         97
  11.5015         80
  11.6872         91
  11.8730         83
  12.0587         69
  12.2445         71
  12.4302         85
  12.6160         84
  12.8018         78
  12.9875         79
  13.1733         64
  13.3590         85
  13.5448         85
  13.7305         71
  13.9163         71
  14.1020         63
  14.2878         78
  14.4736         54
  14.6593         59
  14.8451         71
  15.0308         57
  15.2166         58
  15.4023         65
  15.5881         53
  15.7738         61
  15.9596         71
  16.1454         50
  16.3311         60
  16.5169         56
  16.7026         60
  16.8884         57
  17.0741         44
  17.2599         63
  17.4457         65
  17.6314         63
  17.8172         66
  18.0029         59
  18.1887         64
  18.3744         52
  18.5602         67
  18.7459         79
  18.9317         59
  19.1175         55
  19.3032         70
  19.4890         65
  19.6747         64
  19.8605         68
  20.0462         59
  20.2320         82
  20.4177         59
  20.6035         65
  20.7893         80
  20.9750         91
  21.1608         80
  21.3465        187
  21.5323         85
  21.7180         69
  21.9038         68
  22.0896         70
  22.2753         61
  22.4611         64
  22.6468         73
  22.8326         71
  23.0183         79
  23.2041         66
  23.3898         95
  23.5756         70
  23.7614         72
  23.9471         66
  24.1329         54
  24.3186         93
  24.5044         58
  24.6901         61
  24.8759         79
  25.0616         80
  25.2474         62
  25.4332         86
  25.6189         86
  25.8047         79
  25.9904         60
  26.1762         73
  26.3619         79
  26.5477         58
  26.7335         74
  26.9192         81
  27.1050         86
  27.2907         54
  27.4765         60
  27.6622         73
  27.8480         59
  28.0337         69
  28.2195         67
  28.4053         51
  28.5910         62
  28.7768         65
  28.9625         50
  29.1483         58
  29.3340         59
  29.5198         68
  29.7055         62
  29.8913         56
  30.0771         51
  30.2628         45
  30.4486         85
  30.6343         60
  30.8201         48
  31.0058         55
  31.1916         49
  31.3774         50
  31.5631         49
  31.7489         42
  31.9346         52
  32.1204         58
  32.3061         45
  32.4919         50
  32.6776         46
  32.8634         40
  33.0492         44
  33.2349         29
  33.4207         50
  33.6064         53
  33.7922         38
  33.9779         44
  34.1637         36
  34.3494         39
  34.5352         38
  34.7210         63
  34.9067         45
  35.0925         32
  35.2782         51
  35.4640         29
  35.6497         36
  35.8355         31
  36.0213         38
  36.2070         37
  36.3928         33
  36.5785         36
  36.7643         40
  36.9500         21
  37.1358         26
  37.3215         27
  37.5073         36
  37.6931         33
  37.8788         38
  38.0646         32
  38.2503         31
  38.4361         29
  38.6218         31
  38.8076         30
  38.9933         29
  39.1791         30
  39.3649         43
  39.5506         23
  39.7364         37
  39.9221         24
  40.1079         29
  40.2936         25
  40.4794         17
  40.6652         24
  40.8509         18
  41.0367         29
  41.2224         25
  41.4082         19
  41.5939         29
  41.7797         26
  41.9654         26
  42.1512         33
  42.3370         20
  42.5227         20
  42.7085         29
  42.8942         28
  43.0800         21
  43.2657         16
  43.4515         32
  43.6372         46
  43.8230         33
  44.0088         25
  44.1945         27
  44.3803         28
  44.5660         28
  44.7518         22
  44.9375         28
  45.1233         20
  45.3091         23
  45.4948         18
  45.6806         35
  45.8663         18
  46.0521         28
  46.2378         25
  46.4236         23
  46.6093         20
  46.7951         19
  46.9809         24
  47.1666         22
  47.3524         27
  47.5381         23
  47.7239         21
  47.9096         15
  48.0954         16
  48.2811         26
  48.4669         31
  48.6527         21
  48.8384         26
  49.0242         27
  49.2099         20
  49.3957         20
  49.5814         28
  49.7672         16
  49.9530         20
  50.1387         25
  50.3245         23
  50.5102         22
  50.6960         23
  50.8817         22
  51.0675         25
  51.2532         32
  51.4390         19
  51.6248         20
  51.8105         19
  51.9963         13
  52.1820         20
  52.3678         31
  52.5535         21
  52.7393         19
  52.9250         19
  53.1108         26
  53.2966         17
  53.4823         17
  53.6681         16
  53.8538         21
  54.0396         19
  54.2253         19
  54.4111         24
  54.5969         23
  54.7826         21
  54.9684         27
  55.1541         19
  55.3399         26
  55.5256         20
  55.7114         24
  55.8971         17
  56.0829         20
  56.2687         23
  56.4544         26
  56.6402         15
  56.8259         16
  57.0117         20
  57.1974         24
  57.3832         13
  57.5689         20
  57.7547         23
  57.9405         23
  58.1262         20
  58.3120         17
  58.4977         18
  58.6835         24
  58.8692         27
  59.0550         16
  59.2408         25
  59.4265         16
  59.6123         24
  59.7980         12
  59.9838         29
  60.0024         20