File: notebooks/data/xrd_data/ML_20220720_14_SJD_4_LaB6-1min.csv
;,2THETA,
5.0000,107
5.1858,87
5.3715,97
5.5573,99
5.7430,69
5.9288,83
6.1145,81
6.3003,85
6.4860,87
6.6718,55
6.8576,52
7.0433,66
7.2291,49
7.4148,52
7.6006,56
7.7863,59
7.9721,79
8.1579,88
8.3436,68
8.5294,69
8.7151,75
8.9009,82
9.0866,98
9.2724,80
9.4581,80
9.6439,91
9.8297,71
10.0154,86
10.2012,85
10.3869,84
10.5727,101
10.7584,80
10.9442,74
11.1299,83
11.3157,89
11.5015,79
11.6872,79
11.8730,74
12.0587,79
12.2445,94
12.4302,69
12.6160,78
12.8018,73
12.9875,93
13.1733,87
13.3590,90
13.5448,68
13.7305,59
13.9163,77
14.1020,73
14.2878,83
14.4736,65
14.6593,62
14.8451,59
15.0308,62
15.2166,62
15.4023,49
15.5881,63
15.7738,61
15.9596,72
16.1454,57
16.3311,64
16.5169,60
16.7026,51
16.8884,56
17.0741,56
17.2599,69
17.4457,63
17.6314,55
17.8172,62
18.0029,61
18.1887,48
18.3744,62
18.5602,80
18.7459,73
18.9317,57
19.1175,59
19.3032,59
19.4890,85
19.6747,70
19.8605,63
20.0462,71
20.2320,56
20.4177,64
20.6035,62
20.7893,65
20.9750,65
21.1608,78
21.3465,157
21.5323,68
21.7180,77
21.9038,83
22.0896,73
22.2753,70
22.4611,65
22.6468,75
22.8326,81
23.0183,70
23.2041,63
23.3898,77
23.5756,75
23.7614,68
23.9471,71
24.1329,87
24.3186,83
24.5044,68
24.6901,64
24.8759,59
25.0616,75
25.2474,70
25.4332,81
25.6189,74
25.8047,60
25.9904,68
26.1762,68
26.3619,78
26.5477,86
26.7335,64
26.9192,73
27.1050,63
27.2907,86
27.4765,71
27.6622,77
27.8480,65
28.0337,64
28.2195,57
28.4053,67
28.5910,60
28.7768,76
28.9625,75
29.1483,60
29.3340,56
29.5198,60
29.7055,63
29.8913,63
30.0771,59
30.2628,53
30.4486,80
30.6343,68
30.8201,46
31.0058,69
31.1916,54
31.3774,43
31.5631,64
31.7489,38
31.9346,62
32.1204,51
32.3061,43
32.4919,62
32.6776,33
32.8634,39
33.0492,45
33.2349,44
33.4207,33
33.6064,41
33.7922,47
33.9779,42
34.1637,50
34.3494,47
34.5352,44
34.7210,61
34.9067,43
35.0925,34
35.2782,30
35.4640,25
35.6497,34
35.8355,39
36.0213,32
36.2070,41
36.3928,29
36.5785,27
36.7643,33
36.9500,26
37.1358,38
37.3215,39
37.5073,54
37.6931,31
37.8788,27
38.0646,40
38.2503,44
38.4361,31
38.6218,28
38.8076,30
38.9933,37
39.1791,33
39.3649,40
39.5506,35
39.7364,15
39.9221,34
40.1079,32
40.2936,29
40.4794,23
40.6652,25
40.8509,31
41.0367,28
41.2224,28
41.4082,25
41.5939,27
41.7797,27
41.9654,22
42.1512,34
42.3370,26
42.5227,24
42.7085,20
42.8942,25
43.0800,28
43.2657,35
43.4515,38
43.6372,38
43.8230,34
44.0088,23
44.1945,22
44.3803,39
44.5660,35
44.7518,33
44.9375,20
45.1233,26
45.3091,18
45.4948,26
45.6806,29
45.8663,20
46.0521,29
46.2378,29
46.4236,25
46.6093,18
46.7951,21
46.9809,24
47.1666,33
47.3524,20
47.5381,25
47.7239,29
47.9096,16
48.0954,17
48.2811,23
48.4669,23
48.6527,29
48.8384,28
49.0242,26
49.2099,21
49.3957,20
49.5814,21
49.7672,20
49.9530,34
50.1387,30
50.3245,24
50.5102,19
50.6960,26
50.8817,20
51.0675,22
51.2532,21
51.4390,23
51.6248,23
51.8105,17
51.9963,22
52.1820,16
52.3678,17
52.5535,30
52.7393,20
52.9250,12
53.1108,19
53.2966,22
53.4823,22
53.6681,25
53.8538,21
54.0396,29
54.2253,15
54.4111,30
54.5969,21
54.7826,25
54.9684,27
55.1541,21
55.3399,21
55.5256,20
55.7114,18
55.8971,24
56.0829,16
56.2687,25
56.4544,18
56.6402,19
56.8259,32
57.0117,13
57.1974,29
57.3832,18
57.5689,23
57.7547,27
57.9405,26
58.1262,14
58.3120,21
58.4977,21
58.6835,22
58.8692,15
59.0550,20
59.2408,13
59.4265,25
59.6123,16
59.7980,21
59.9838,29
60.0024,17