File: notebooks/data/xrd_data/ML_20220718_52_SJD_4_LaB6-4min.uxd
; (content of file Y:\Sam\Apurva-07-20-2022\puck4\ML_20220718_52_SJD_4_LaB6-4min.raw)
_FILEVERSION = 3
_SAMPLE = ML_20220718_52_SJD_4_LaB6-4min
_+SAMPLE =
_SITE = USA
_USER = Administrator
_GONIOMETER_CODE = 20
; Goniometer : D8 theta/2theta, stage : Unknown
_ATTACHMENTS_CODE = 0
_GONIOMETER_RADIUS = 200.5
_FIXED_DIVSLIT = 0.6
_FIXED_SAMPLESLIT = 0
_SOLLER_SLITS = 2
_FIXED_DETSLIT = 9.55
_MONOCHROMATOR = 0
; Incident beam monochromator : None
_SOLLER_SLITS_2 = N
_THIN_FILM = N
_BETA_FILTER = Y
_FIXED_ANTISLIT = 5.89
_ANALYZER_CODE = 0
; Received beam analyzer : None
_DATEMEASURED = "26-Jul-2022 14:09:44"
_WL_UNIT = A
_WL1 = 1.5406
_WL2 = 1.54439
_WL3 = 1.39222
_WLRATIO = 0.5
_ANODE = Cu
_V4_INF_CREATOR = XRDWizard
_V4_INF_CREATOR_VERSION = V2.9.0.22
_V4_INF_WIZARD_VERSION = V2.9.0.22
_V4_INF_WIZARD_ADDINS = V2.9.0.22
_V4_INF_WIZARD_DOCTYPE = XRD
_V4_INF_OSUSER = McQueenLab
_V4_INF_USER = Administrator
_V4_INF_SITE = USA
_V4_INF_SAMPLEID = ML_20220718_52_SJD_4_LaB6-4min

; Data for range 1
_DRIVE = COUPLED
_STEPTIME = 11.28
_STEPSIZE = 0.0185756
_STEPMODE = C
_START = 5
_THETA = 2.5
_2THETA = 5
_KHI = 0
_PHI = 0
_X = 0
_Y = 0
_Z = 0
_DETECTOR = 5
; Detector type : Unknown
_DETECTORSLIT = unkn
_AUX1 = 0
_AUX2 = 0
_AUX3 = 0
_TIMESTARTED = 15
_TEMP_RATE = -1
_TEMP_DELAY = -1
_KV = 40
_MA = 40
_RANGE_WL = 1.5406
_3DPLANE = 0
_V4_ADDITIONALDETECTOR = 257
_V4_PSD2THETA = 3.3662
_V4_PSDCHANNEL1 = 0
_V4_PSDAPERTURE = 12.68
_V4_PSDTYPE = 5
_V4_PSDFIXED = 0
_V4_COUNTERS_MASK = 4096
_V4_DRIVES_MASK = 0
_V4_ENCODERS_MASK = 0
_2THETACOUNTS = 1
; 2THETA  PSD
   5.0000        270
   5.1858        245
   5.3715        227
   5.5573        212
   5.7430        223
   5.9288        209
   6.1145        182
   6.3003        199
   6.4860        165
   6.6718        169
   6.8576        158
   7.0433        180
   7.2291        159
   7.4148        158
   7.6006        162
   7.7863        171
   7.9721        176
   8.1579        190
   8.3436        203
   8.5294        208
   8.7151        199
   8.9009        202
   9.0866        223
   9.2724        238
   9.4581        248
   9.6439        223
   9.8297        232
  10.0154        227
  10.2012        249
  10.3869        251
  10.5727        243
  10.7584        251
  10.9442        262
  11.1299        273
  11.3157        250
  11.5015        214
  11.6872        239
  11.8730        203
  12.0587        237
  12.2445        219
  12.4302        188
  12.6160        207
  12.8018        196
  12.9875        194
  13.1733        207
  13.3590        210
  13.5448        199
  13.7305        180
  13.9163        182
  14.1020        200
  14.2878        158
  14.4736        167
  14.6593        160
  14.8451        170
  15.0308        161
  15.2166        162
  15.4023        169
  15.5881        155
  15.7738        165
  15.9596        154
  16.1454        156
  16.3311        160
  16.5169        136
  16.7026        188
  16.8884        160
  17.0741        165
  17.2599        162
  17.4457        165
  17.6314        161
  17.8172        171
  18.0029        162
  18.1887        173
  18.3744        172
  18.5602        177
  18.7459        159
  18.9317        157
  19.1175        167
  19.3032        174
  19.4890        175
  19.6747        191
  19.8605        187
  20.0462        189
  20.2320        188
  20.4177        192
  20.6035        194
  20.7893        163
  20.9750        179
  21.1608        231
  21.3465        478
  21.5323        190
  21.7180        179
  21.9038        188
  22.0896        181
  22.2753        217
  22.4611        204
  22.6468        193
  22.8326        183
  23.0183        185
  23.2041        216
  23.3898        204
  23.5756        197
  23.7614        189
  23.9471        188
  24.1329        193
  24.3186        238
  24.5044        205
  24.6901        204
  24.8759        207
  25.0616        232
  25.2474        192
  25.4332        177
  25.6189        206
  25.8047        198
  25.9904        193
  26.1762        194
  26.3619        199
  26.5477        189
  26.7335        197
  26.9192        207
  27.1050        200
  27.2907        212
  27.4765        199
  27.6622        170
  27.8480        189
  28.0337        169
  28.2195        200
  28.4053        161
  28.5910        156
  28.7768        169
  28.9625        174
  29.1483        170
  29.3340        182
  29.5198        187
  29.7055        164
  29.8913        178
  30.0771        168
  30.2628        167
  30.4486        231
  30.6343        153
  30.8201        171
  31.0058        151
  31.1916        135
  31.3774        149
  31.5631        135
  31.7489        150
  31.9346        127
  32.1204        123
  32.3061        145
  32.4919        173
  32.6776        128
  32.8634        147
  33.0492        126
  33.2349        125
  33.4207        134
  33.6064        108
  33.7922        125
  33.9779        121
  34.1637        113
  34.3494        121
  34.5352        112
  34.7210        147
  34.9067        115
  35.0925         79
  35.2782        100
  35.4640        102
  35.6497        103
  35.8355         87
  36.0213         97
  36.2070         99
  36.3928         78
  36.5785         83
  36.7643         94
  36.9500         93
  37.1358        103
  37.3215        102
  37.5073        101
  37.6931         89
  37.8788         79
  38.0646         86
  38.2503         85
  38.4361         77
  38.6218         80
  38.8076         97
  38.9933         57
  39.1791         82
  39.3649         85
  39.5506         67
  39.7364         84
  39.9221         77
  40.1079         75
  40.2936         69
  40.4794         62
  40.6652         64
  40.8509         82
  41.0367         81
  41.2224         75
  41.4082         67
  41.5939         64
  41.7797         74
  41.9654         75
  42.1512         80
  42.3370         65
  42.5227         75
  42.7085         72
  42.8942         84
  43.0800         75
  43.2657         88
  43.4515         80
  43.6372         92
  43.8230         79
  44.0088         57
  44.1945         67
  44.3803         75
  44.5660         73
  44.7518         70
  44.9375         71
  45.1233         74
  45.3091         56
  45.4948         67
  45.6806         61
  45.8663         55
  46.0521         71
  46.2378         71
  46.4236         66
  46.6093         84
  46.7951         59
  46.9809         64
  47.1666         64
  47.3524         57
  47.5381         71
  47.7239         67
  47.9096         71
  48.0954         69
  48.2811         50
  48.4669         62
  48.6527         38
  48.8384         78
  49.0242         57
  49.2099         71
  49.3957         60
  49.5814         64
  49.7672         62
  49.9530         55
  50.1387         71
  50.3245         60
  50.5102         66
  50.6960         56
  50.8817         77
  51.0675         59
  51.2532         47
  51.4390         61
  51.6248         53
  51.8105         67
  51.9963         71
  52.1820         64
  52.3678         61
  52.5535         44
  52.7393         59
  52.9250         60
  53.1108         57
  53.2966         52
  53.4823         60
  53.6681         53
  53.8538         57
  54.0396         70
  54.2253         68
  54.4111         54
  54.5969         50
  54.7826         51
  54.9684         54
  55.1541         51
  55.3399         55
  55.5256         52
  55.7114         52
  55.8971         51
  56.0829         50
  56.2687         71
  56.4544         63
  56.6402         65
  56.8259         49
  57.0117         65
  57.1974         63
  57.3832         63
  57.5689         50
  57.7547         55
  57.9405         50
  58.1262         56
  58.3120         49
  58.4977         56
  58.6835         56
  58.8692         58
  59.0550         56
  59.2408         46
  59.4265         58
  59.6123         55
  59.7980         41
  59.9838         44
  60.0024         57