File: notebooks/data/xrd_data/ML_20220720_0_SJD_4_LaB6-2min.csv
;,2THETA,
5.0000,124
5.1858,127
5.3715,121
5.5573,118
5.7430,105
5.9288,114
6.1145,87
6.3003,86
6.4860,84
6.6718,76
6.8576,83
7.0433,82
7.2291,80
7.4148,77
7.6006,80
7.7863,75
7.9721,79
8.1579,94
8.3436,105
8.5294,112
8.7151,101
8.9009,101
9.0866,108
9.2724,117
9.4581,123
9.6439,123
9.8297,124
10.0154,95
10.2012,117
10.3869,100
10.5727,112
10.7584,110
10.9442,111
11.1299,103
11.3157,97
11.5015,111
11.6872,116
11.8730,95
12.0587,94
12.2445,107
12.4302,102
12.6160,100
12.8018,109
12.9875,93
13.1733,121
13.3590,93
13.5448,87
13.7305,90
13.9163,94
14.1020,102
14.2878,77
14.4736,88
14.6593,70
14.8451,87
15.0308,86
15.2166,84
15.4023,54
15.5881,83
15.7738,86
15.9596,85
16.1454,62
16.3311,72
16.5169,68
16.7026,71
16.8884,63
17.0741,85
17.2599,66
17.4457,66
17.6314,68
17.8172,74
18.0029,76
18.1887,85
18.3744,74
18.5602,78
18.7459,79
18.9317,78
19.1175,85
19.3032,87
19.4890,77
19.6747,92
19.8605,87
20.0462,81
20.2320,95
20.4177,86
20.6035,81
20.7893,111
20.9750,82
21.1608,125
21.3465,256
21.5323,105
21.7180,86
21.9038,85
22.0896,94
22.2753,107
22.4611,101
22.6468,93
22.8326,98
23.0183,121
23.2041,109
23.3898,104
23.5756,118
23.7614,85
23.9471,100
24.1329,98
24.3186,107
24.5044,100
24.6901,94
24.8759,87
25.0616,114
25.2474,92
25.4332,101
25.6189,112
25.8047,93
25.9904,98
26.1762,86
26.3619,86
26.5477,99
26.7335,79
26.9192,99
27.1050,103
27.2907,96
27.4765,88
27.6622,71
27.8480,103
28.0337,65
28.2195,79
28.4053,78
28.5910,72
28.7768,70
28.9625,84
29.1483,78
29.3340,75
29.5198,76
29.7055,71
29.8913,66
30.0771,78
30.2628,58
30.4486,142
30.6343,62
30.8201,73
31.0058,77
31.1916,71
31.3774,76
31.5631,69
31.7489,72
31.9346,62
32.1204,62
32.3061,70
32.4919,63
32.6776,59
32.8634,65
33.0492,62
33.2349,75
33.4207,55
33.6064,52
33.7922,55
33.9779,65
34.1637,52
34.3494,55
34.5352,59
34.7210,75
34.9067,52
35.0925,70
35.2782,47
35.4640,45
35.6497,57
35.8355,50
36.0213,41
36.2070,52
36.3928,48
36.5785,41
36.7643,35
36.9500,47
37.1358,40
37.3215,42
37.5073,72
37.6931,33
37.8788,53
38.0646,34
38.2503,35
38.4361,37
38.6218,52
38.8076,38
38.9933,41
39.1791,45
39.3649,44
39.5506,37
39.7364,50
39.9221,39
40.1079,43
40.2936,41
40.4794,39
40.6652,36
40.8509,29
41.0367,33
41.2224,30
41.4082,38
41.5939,30
41.7797,35
41.9654,41
42.1512,43
42.3370,29
42.5227,34
42.7085,44
42.8942,36
43.0800,43
43.2657,40
43.4515,44
43.6372,25
43.8230,30
44.0088,37
44.1945,36
44.3803,43
44.5660,38
44.7518,34
44.9375,36
45.1233,39
45.3091,41
45.4948,47
45.6806,51
45.8663,39
46.0521,38
46.2378,27
46.4236,31
46.6093,34
46.7951,31
46.9809,39
47.1666,27
47.3524,36
47.5381,26
47.7239,27
47.9096,29
48.0954,30
48.2811,27
48.4669,41
48.6527,27
48.8384,42
49.0242,35
49.2099,37
49.3957,29
49.5814,25
49.7672,33
49.9530,26
50.1387,36
50.3245,32
50.5102,23
50.6960,22
50.8817,27
51.0675,21
51.2532,26
51.4390,38
51.6248,28
51.8105,30
51.9963,27
52.1820,25
52.3678,24
52.5535,23
52.7393,34
52.9250,36
53.1108,29
53.2966,25
53.4823,31
53.6681,33
53.8538,23
54.0396,31
54.2253,39
54.4111,31
54.5969,24
54.7826,24
54.9684,22
55.1541,24
55.3399,25
55.5256,20
55.7114,30
55.8971,28
56.0829,33
56.2687,39
56.4544,36
56.6402,21
56.8259,25
57.0117,24
57.1974,31
57.3832,23
57.5689,23
57.7547,34
57.9405,25
58.1262,22
58.3120,34
58.4977,21
58.6835,30
58.8692,30
59.0550,25
59.2408,33
59.4265,32
59.6123,21
59.7980,27
59.9838,22
60.0024,26