File: notebooks/data/xrd_data/ML_20220718_21_SJD_4_LaB6-2min.csv
;,2THETA,
5.0000,158
5.1858,123
5.3715,119
5.5573,106
5.7430,107
5.9288,92
6.1145,83
6.3003,76
6.4860,86
6.6718,101
6.8576,82
7.0433,77
7.2291,70
7.4148,73
7.6006,102
7.7863,92
7.9721,109
8.1579,89
8.3436,102
8.5294,112
8.7151,108
8.9009,100
9.0866,123
9.2724,117
9.4581,126
9.6439,95
9.8297,115
10.0154,112
10.2012,122
10.3869,112
10.5727,130
10.7584,126
10.9442,109
11.1299,134
11.3157,122
11.5015,115
11.6872,102
11.8730,114
12.0587,107
12.2445,116
12.4302,96
12.6160,89
12.8018,92
12.9875,103
13.1733,104
13.3590,94
13.5448,73
13.7305,97
13.9163,101
14.1020,94
14.2878,86
14.4736,84
14.6593,75
14.8451,82
15.0308,94
15.2166,71
15.4023,81
15.5881,70
15.7738,63
15.9596,75
16.1454,78
16.3311,83
16.5169,79
16.7026,96
16.8884,85
17.0741,92
17.2599,81
17.4457,101
17.6314,92
17.8172,82
18.0029,92
18.1887,90
18.3744,97
18.5602,64
18.7459,91
18.9317,75
19.1175,80
19.3032,89
19.4890,92
19.6747,112
19.8605,96
20.0462,87
20.2320,95
20.4177,97
20.6035,90
20.7893,88
20.9750,108
21.1608,120
21.3465,239
21.5323,90
21.7180,114
21.9038,108
22.0896,83
22.2753,100
22.4611,109
22.6468,97
22.8326,95
23.0183,104
23.2041,96
23.3898,99
23.5756,106
23.7614,89
23.9471,100
24.1329,96
24.3186,119
24.5044,109
24.6901,89
24.8759,90
25.0616,102
25.2474,109
25.4332,85
25.6189,100
25.8047,85
25.9904,84
26.1762,98
26.3619,109
26.5477,103
26.7335,93
26.9192,107
27.1050,85
27.2907,99
27.4765,91
27.6622,87
27.8480,84
28.0337,87
28.2195,84
28.4053,80
28.5910,75
28.7768,76
28.9625,84
29.1483,82
29.3340,67
29.5198,87
29.7055,76
29.8913,60
30.0771,89
30.2628,74
30.4486,135
30.6343,83
30.8201,78
31.0058,66
31.1916,76
31.3774,71
31.5631,63
31.7489,88
31.9346,63
32.1204,67
32.3061,64
32.4919,80
32.6776,64
32.8634,77
33.0492,56
33.2349,54
33.4207,63
33.6064,50
33.7922,57
33.9779,51
34.1637,54
34.3494,47
34.5352,54
34.7210,77
34.9067,67
35.0925,61
35.2782,42
35.4640,36
35.6497,40
35.8355,55
36.0213,39
36.2070,46
36.3928,59
36.5785,50
36.7643,53
36.9500,56
37.1358,51
37.3215,44
37.5073,48
37.6931,49
37.8788,37
38.0646,37
38.2503,48
38.4361,50
38.6218,54
38.8076,41
38.9933,44
39.1791,36
39.3649,42
39.5506,39
39.7364,55
39.9221,50
40.1079,45
40.2936,25
40.4794,31
40.6652,40
40.8509,40
41.0367,50
41.2224,30
41.4082,27
41.5939,33
41.7797,41
41.9654,36
42.1512,43
42.3370,31
42.5227,30
42.7085,37
42.8942,49
43.0800,31
43.2657,51
43.4515,55
43.6372,60
43.8230,26
44.0088,34
44.1945,37
44.3803,41
44.5660,27
44.7518,37
44.9375,34
45.1233,36
45.3091,39
45.4948,39
45.6806,41
45.8663,36
46.0521,28
46.2378,36
46.4236,27
46.6093,32
46.7951,29
46.9809,38
47.1666,32
47.3524,43
47.5381,47
47.7239,29
47.9096,28
48.0954,35
48.2811,27
48.4669,27
48.6527,35
48.8384,32
49.0242,32
49.2099,32
49.3957,36
49.5814,24
49.7672,23
49.9530,24
50.1387,29
50.3245,30
50.5102,30
50.6960,32
50.8817,31
51.0675,30
51.2532,28
51.4390,35
51.6248,29
51.8105,27
51.9963,29
52.1820,41
52.3678,24
52.5535,25
52.7393,25
52.9250,29
53.1108,42
53.2966,23
53.4823,42
53.6681,32
53.8538,40
54.0396,18
54.2253,31
54.4111,31
54.5969,27
54.7826,29
54.9684,37
55.1541,24
55.3399,25
55.5256,30
55.7114,27
55.8971,30
56.0829,27
56.2687,28
56.4544,26
56.6402,29
56.8259,26
57.0117,28
57.1974,33
57.3832,32
57.5689,37
57.7547,28
57.9405,33
58.1262,24
58.3120,23
58.4977,31
58.6835,33
58.8692,22
59.0550,23
59.2408,21
59.4265,27
59.6123,24
59.7980,36
59.9838,16
60.0024,34