File: notebooks/data/xrd_data/ML_20220721_24_SJD_4_LaB6-4min.csv
;,2THETA,
5.0000,277
5.1858,247
5.3715,241
5.5573,245
5.7430,193
5.9288,189
6.1145,192
6.3003,180
6.4860,145
6.6718,183
6.8576,168
7.0433,159
7.2291,154
7.4148,156
7.6006,153
7.7863,170
7.9721,186
8.1579,186
8.3436,183
8.5294,215
8.7151,219
8.9009,230
9.0866,232
9.2724,242
9.4581,224
9.6439,212
9.8297,216
10.0154,255
10.2012,243
10.3869,214
10.5727,241
10.7584,240
10.9442,262
11.1299,221
11.3157,236
11.5015,237
11.6872,206
11.8730,210
12.0587,220
12.2445,216
12.4302,210
12.6160,189
12.8018,209
12.9875,202
13.1733,235
13.3590,213
13.5448,195
13.7305,175
13.9163,185
14.1020,199
14.2878,191
14.4736,180
14.6593,174
14.8451,169
15.0308,159
15.2166,158
15.4023,172
15.5881,168
15.7738,147
15.9596,159
16.1454,178
16.3311,154
16.5169,151
16.7026,156
16.8884,171
17.0741,154
17.2599,158
17.4457,142
17.6314,174
17.8172,187
18.0029,180
18.1887,178
18.3744,179
18.5602,165
18.7459,161
18.9317,172
19.1175,133
19.3032,178
19.4890,157
19.6747,188
19.8605,167
20.0462,153
20.2320,211
20.4177,158
20.6035,173
20.7893,164
20.9750,199
21.1608,250
21.3465,483
21.5323,199
21.7180,186
21.9038,196
22.0896,203
22.2753,219
22.4611,209
22.6468,195
22.8326,197
23.0183,172
23.2041,210
23.3898,225
23.5756,201
23.7614,197
23.9471,233
24.1329,198
24.3186,213
24.5044,191
24.6901,208
24.8759,191
25.0616,180
25.2474,188
25.4332,205
25.6189,178
25.8047,199
25.9904,202
26.1762,185
26.3619,191
26.5477,185
26.7335,184
26.9192,205
27.1050,212
27.2907,221
27.4765,223
27.6622,206
27.8480,173
28.0337,179
28.2195,180
28.4053,195
28.5910,174
28.7768,183
28.9625,165
29.1483,161
29.3340,175
29.5198,151
29.7055,166
29.8913,150
30.0771,158
30.2628,145
30.4486,242
30.6343,134
30.8201,167
31.0058,147
31.1916,155
31.3774,145
31.5631,140
31.7489,138
31.9346,144
32.1204,135
32.3061,149
32.4919,146
32.6776,132
32.8634,129
33.0492,130
33.2349,125
33.4207,127
33.6064,124
33.7922,130
33.9779,121
34.1637,115
34.3494,110
34.5352,117
34.7210,151
34.9067,113
35.0925,91
35.2782,125
35.4640,99
35.6497,80
35.8355,96
36.0213,101
36.2070,104
36.3928,97
36.5785,74
36.7643,102
36.9500,90
37.1358,83
37.3215,88
37.5073,112
37.6931,80
37.8788,87
38.0646,93
38.2503,84
38.4361,76
38.6218,91
38.8076,97
38.9933,92
39.1791,82
39.3649,55
39.5506,80
39.7364,79
39.9221,66
40.1079,80
40.2936,88
40.4794,73
40.6652,69
40.8509,70
41.0367,82
41.2224,78
41.4082,82
41.5939,69
41.7797,83
41.9654,86
42.1512,93
42.3370,74
42.5227,72
42.7085,75
42.8942,64
43.0800,71
43.2657,85
43.4515,84
43.6372,97
43.8230,77
44.0088,65
44.1945,73
44.3803,73
44.5660,91
44.7518,79
44.9375,75
45.1233,83
45.3091,66
45.4948,75
45.6806,80
45.8663,62
46.0521,65
46.2378,64
46.4236,52
46.6093,64
46.7951,60
46.9809,71
47.1666,58
47.3524,62
47.5381,49
47.7239,74
47.9096,62
48.0954,49
48.2811,64
48.4669,65
48.6527,64
48.8384,88
49.0242,79
49.2099,63
49.3957,71
49.5814,68
49.7672,55
49.9530,55
50.1387,67
50.3245,60
50.5102,64
50.6960,60
50.8817,60
51.0675,56
51.2532,69
51.4390,65
51.6248,72
51.8105,69
51.9963,67
52.1820,54
52.3678,45
52.5535,60
52.7393,62
52.9250,58
53.1108,68
53.2966,55
53.4823,56
53.6681,71
53.8538,51
54.0396,52
54.2253,63
54.4111,57
54.5969,47
54.7826,50
54.9684,55
55.1541,53
55.3399,59
55.5256,62
55.7114,61
55.8971,44
56.0829,52
56.2687,72
56.4544,69
56.6402,63
56.8259,64
57.0117,45
57.1974,64
57.3832,56
57.5689,58
57.7547,61
57.9405,63
58.1262,46
58.3120,56
58.4977,65
58.6835,62
58.8692,54
59.0550,61
59.2408,45
59.4265,46
59.6123,57
59.7980,60
59.9838,44
60.0024,58