File: notebooks/data/xrd_data/ML_20220721_10_SJD_4_LaB6-4min.uxd
; (content of file Y:\Sam\Apurva-07-20-2022\puck1\ML_20220721_10_SJD_0_LaB6-4min.raw)
_FILEVERSION = 3
_SAMPLE = ML_20220721_10_SJD_0_LaB6-4min
_+SAMPLE =
_SITE = USA
_USER = Administrator
_GONIOMETER_CODE = 20
; Goniometer : D8 theta/2theta, stage : Unknown
_ATTACHMENTS_CODE = 0
_GONIOMETER_RADIUS = 200.5
_FIXED_DIVSLIT = 0.6
_FIXED_SAMPLESLIT = 0
_SOLLER_SLITS = 2
_FIXED_DETSLIT = 9.55
_MONOCHROMATOR = 0
; Incident beam monochromator : None
_SOLLER_SLITS_2 = N
_THIN_FILM = N
_BETA_FILTER = Y
_FIXED_ANTISLIT = 5.89
_ANALYZER_CODE = 0
; Received beam analyzer : None
_DATEMEASURED = "25-Jul-2022 14:37:26"
_WL_UNIT = A
_WL1 = 1.5406
_WL2 = 1.54439
_WL3 = 1.39222
_WLRATIO = 0.5
_ANODE = Cu
_V4_INF_CREATOR = XRDWizard
_V4_INF_CREATOR_VERSION = V2.9.0.22
_V4_INF_WIZARD_VERSION = V2.9.0.22
_V4_INF_WIZARD_ADDINS = V2.9.0.22
_V4_INF_WIZARD_DOCTYPE = XRD
_V4_INF_OSUSER = McQueenLab
_V4_INF_USER = Administrator
_V4_INF_SITE = USA
_V4_INF_SAMPLEID = ML_20220721_10_SJD_0_LaB6-4min

; Data for range 1
_DRIVE = COUPLED
_STEPTIME = 11.28
_STEPSIZE = 0.0185756
_STEPMODE = C
_START = 5
_THETA = 2.5
_2THETA = 5
_KHI = 0
_PHI = 0
_X = 0
_Y = 0
_Z = 0
_DETECTOR = 5
; Detector type : Unknown
_DETECTORSLIT = unkn
_AUX1 = 0
_AUX2 = 0
_AUX3 = 0
_TIMESTARTED = 15
_TEMP_RATE = -1
_TEMP_DELAY = -1
_KV = 40
_MA = 40
_RANGE_WL = 1.5406
_3DPLANE = 0
_V4_ADDITIONALDETECTOR = 257
_V4_PSD2THETA = 3.372
_V4_PSDCHANNEL1 = 0
_V4_PSDAPERTURE = 12.68
_V4_PSDTYPE = 5
_V4_PSDFIXED = 0
_V4_COUNTERS_MASK = 4096
_V4_DRIVES_MASK = 0
_V4_ENCODERS_MASK = 0
_2THETACOUNTS = 1
; 2THETA  PSD
   5.0000        259
   5.1858        221
   5.3715        220
   5.5573        196
   5.7430        173
   5.9288        198
   6.1145        196
   6.3003        182
   6.4860        187
   6.6718        173
   6.8576        164
   7.0433        134
   7.2291        152
   7.4148        152
   7.6006        172
   7.7863        183
   7.9721        194
   8.1579        171
   8.3436        175
   8.5294        179
   8.7151        189
   8.9009        217
   9.0866        221
   9.2724        226
   9.4581        234
   9.6439        221
   9.8297        255
  10.0154        240
  10.2012        267
  10.3869        268
  10.5727        250
  10.7584        218
  10.9442        224
  11.1299        222
  11.3157        251
  11.5015        241
  11.6872        246
  11.8730        245
  12.0587        260
  12.2445        221
  12.4302        239
  12.6160        243
  12.8018        206
  12.9875        205
  13.1733        205
  13.3590        224
  13.5448        204
  13.7305        197
  13.9163        185
  14.1020        182
  14.2878        177
  14.4736        181
  14.6593        164
  14.8451        155
  15.0308        151
  15.2166        175
  15.4023        179
  15.5881        178
  15.7738        155
  15.9596        174
  16.1454        168
  16.3311        197
  16.5169        168
  16.7026        149
  16.8884        186
  17.0741        162
  17.2599        162
  17.4457        172
  17.6314        157
  17.8172        153
  18.0029        144
  18.1887        170
  18.3744        173
  18.5602        170
  18.7459        142
  18.9317        183
  19.1175        179
  19.3032        156
  19.4890        196
  19.6747        165
  19.8605        186
  20.0462        153
  20.2320        180
  20.4177        187
  20.6035        214
  20.7893        205
  20.9750        176
  21.1608        198
  21.3465        303
  21.5323        197
  21.7180        197
  21.9038        220
  22.0896        208
  22.2753        205
  22.4611        197
  22.6468        210
  22.8326        202
  23.0183        200
  23.2041        188
  23.3898        217
  23.5756        208
  23.7614        219
  23.9471        218
  24.1329        203
  24.3186        259
  24.5044        200
  24.6901        221
  24.8759        195
  25.0616        197
  25.2474        187
  25.4332        207
  25.6189        186
  25.8047        183
  25.9904        177
  26.1762        176
  26.3619        187
  26.5477        189
  26.7335        172
  26.9192        177
  27.1050        206
  27.2907        228
  27.4765        214
  27.6622        190
  27.8480        182
  28.0337        187
  28.2195        165
  28.4053        160
  28.5910        157
  28.7768        180
  28.9625        159
  29.1483        166
  29.3340        147
  29.5198        144
  29.7055        167
  29.8913        171
  30.0771        147
  30.2628        163
  30.4486        305
  30.6343        180
  30.8201        162
  31.0058        144
  31.1916        169
  31.3774        129
  31.5631        142
  31.7489        128
  31.9346        125
  32.1204        144
  32.3061        143
  32.4919        148
  32.6776        146
  32.8634        128
  33.0492        129
  33.2349        134
  33.4207        119
  33.6064        113
  33.7922         98
  33.9779        129
  34.1637        120
  34.3494        114
  34.5352        107
  34.7210        125
  34.9067        138
  35.0925        104
  35.2782        102
  35.4640        114
  35.6497        106
  35.8355         92
  36.0213         88
  36.2070        101
  36.3928         98
  36.5785         96
  36.7643         82
  36.9500         86
  37.1358        103
  37.3215        106
  37.5073        149
  37.6931         85
  37.8788         88
  38.0646         93
  38.2503         83
  38.4361         69
  38.6218        100
  38.8076         98
  38.9933         87
  39.1791         86
  39.3649         65
  39.5506         68
  39.7364         85
  39.9221         87
  40.1079         80
  40.2936         85
  40.4794         67
  40.6652         91
  40.8509         64
  41.0367         90
  41.2224         88
  41.4082         60
  41.5939         68
  41.7797         89
  41.9654         79
  42.1512         60
  42.3370         80
  42.5227         81
  42.7085         78
  42.8942         80
  43.0800         85
  43.2657         83
  43.4515         60
  43.6372         93
  43.8230         74
  44.0088         68
  44.1945         86
  44.3803         71
  44.5660         81
  44.7518         61
  44.9375         70
  45.1233         63
  45.3091         58
  45.4948         67
  45.6806         75
  45.8663         70
  46.0521         67
  46.2378         50
  46.4236         51
  46.6093         63
  46.7951         62
  46.9809         67
  47.1666         52
  47.3524         71
  47.5381         71
  47.7239         65
  47.9096         54
  48.0954         60
  48.2811         55
  48.4669         64
  48.6527         49
  48.8384         72
  49.0242        107
  49.2099         75
  49.3957         55
  49.5814         63
  49.7672         63
  49.9530         71
  50.1387         67
  50.3245         61
  50.5102         58
  50.6960         69
  50.8817         60
  51.0675         57
  51.2532         53
  51.4390         70
  51.6248         79
  51.8105         59
  51.9963         70
  52.1820         70
  52.3678         53
  52.5535         67
  52.7393         55
  52.9250         58
  53.1108         58
  53.2966         63
  53.4823         46
  53.6681         61
  53.8538         73
  54.0396         71
  54.2253         61
  54.4111         66
  54.5969         55
  54.7826         59
  54.9684         56
  55.1541         64
  55.3399         48
  55.5256         61
  55.7114         56
  55.8971         60
  56.0829         52
  56.2687         60
  56.4544         63
  56.6402         75
  56.8259         60
  57.0117         53
  57.1974         51
  57.3832         61
  57.5689         62
  57.7547         62
  57.9405         45
  58.1262         45
  58.3120         55
  58.4977         73
  58.6835         47
  58.8692         50
  59.0550         65
  59.2408         44
  59.4265         49
  59.6123         59
  59.7980         48
  59.9838         51
  60.0024         49