File: notebooks/data/xrd_data/ML_20220718_58_SJD_4_LaB6-1min.csv
;,2THETA,
5.0000,92
5.1858,85
5.3715,73
5.5573,94
5.7430,80
5.9288,66
6.1145,101
6.3003,63
6.4860,56
6.6718,81
6.8576,50
7.0433,60
7.2291,63
7.4148,54
7.6006,52
7.7863,75
7.9721,72
8.1579,76
8.3436,76
8.5294,79
8.7151,70
8.9009,73
9.0866,90
9.2724,99
9.4581,110
9.6439,74
9.8297,81
10.0154,80
10.2012,94
10.3869,83
10.5727,89
10.7584,96
10.9442,89
11.1299,73
11.3157,81
11.5015,98
11.6872,88
11.8730,87
12.0587,92
12.2445,73
12.4302,71
12.6160,75
12.8018,96
12.9875,69
13.1733,71
13.3590,85
13.5448,68
13.7305,64
13.9163,65
14.1020,72
14.2878,65
14.4736,69
14.6593,58
14.8451,56
15.0308,58
15.2166,58
15.4023,49
15.5881,57
15.7738,55
15.9596,51
16.1454,57
16.3311,61
16.5169,56
16.7026,53
16.8884,59
17.0741,62
17.2599,63
17.4457,64
17.6314,40
17.8172,64
18.0029,58
18.1887,66
18.3744,84
18.5602,49
18.7459,77
18.9317,65
19.1175,60
19.3032,70
19.4890,64
19.6747,56
19.8605,74
20.0462,71
20.2320,59
20.4177,59
20.6035,70
20.7893,93
20.9750,66
21.1608,83
21.3465,193
21.5323,73
21.7180,66
21.9038,68
22.0896,75
22.2753,81
22.4611,84
22.6468,70
22.8326,63
23.0183,90
23.2041,80
23.3898,81
23.5756,75
23.7614,66
23.9471,79
24.1329,79
24.3186,79
24.5044,84
24.6901,85
24.8759,79
25.0616,63
25.2474,66
25.4332,80
25.6189,80
25.8047,70
25.9904,64
26.1762,73
26.3619,66
26.5477,64
26.7335,75
26.9192,78
27.1050,78
27.2907,62
27.4765,50
27.6622,70
27.8480,65
28.0337,68
28.2195,60
28.4053,71
28.5910,54
28.7768,63
28.9625,59
29.1483,54
29.3340,55
29.5198,63
29.7055,60
29.8913,50
30.0771,56
30.2628,63
30.4486,89
30.6343,49
30.8201,77
31.0058,56
31.1916,60
31.3774,31
31.5631,53
31.7489,53
31.9346,37
32.1204,43
32.3061,54
32.4919,62
32.6776,42
32.8634,41
33.0492,49
33.2349,41
33.4207,41
33.6064,37
33.7922,36
33.9779,45
34.1637,43
34.3494,45
34.5352,52
34.7210,50
34.9067,46
35.0925,34
35.2782,54
35.4640,40
35.6497,23
35.8355,33
36.0213,33
36.2070,32
36.3928,35
36.5785,36
36.7643,29
36.9500,29
37.1358,25
37.3215,29
37.5073,36
37.6931,36
37.8788,34
38.0646,27
38.2503,21
38.4361,41
38.6218,40
38.8076,30
38.9933,40
39.1791,35
39.3649,30
39.5506,38
39.7364,32
39.9221,26
40.1079,27
40.2936,24
40.4794,24
40.6652,19
40.8509,19
41.0367,31
41.2224,24
41.4082,31
41.5939,26
41.7797,29
41.9654,22
42.1512,24
42.3370,33
42.5227,22
42.7085,28
42.8942,31
43.0800,18
43.2657,34
43.4515,33
43.6372,33
43.8230,25
44.0088,30
44.1945,25
44.3803,22
44.5660,22
44.7518,20
44.9375,30
45.1233,24
45.3091,18
45.4948,23
45.6806,30
45.8663,26
46.0521,24
46.2378,18
46.4236,26
46.6093,30
46.7951,18
46.9809,28
47.1666,20
47.3524,24
47.5381,31
47.7239,26
47.9096,23
48.0954,18
48.2811,17
48.4669,14
48.6527,23
48.8384,21
49.0242,31
49.2099,23
49.3957,19
49.5814,20
49.7672,23
49.9530,30
50.1387,26
50.3245,18
50.5102,33
50.6960,23
50.8817,25
51.0675,32
51.2532,21
51.4390,20
51.6248,21
51.8105,25
51.9963,23
52.1820,19
52.3678,25
52.5535,21
52.7393,26
52.9250,15
53.1108,23
53.2966,19
53.4823,34
53.6681,23
53.8538,20
54.0396,29
54.2253,27
54.4111,24
54.5969,23
54.7826,17
54.9684,19
55.1541,24
55.3399,18
55.5256,19
55.7114,29
55.8971,25
56.0829,22
56.2687,22
56.4544,26
56.6402,22
56.8259,17
57.0117,26
57.1974,19
57.3832,21
57.5689,21
57.7547,22
57.9405,23
58.1262,27
58.3120,11
58.4977,20
58.6835,16
58.8692,25
59.0550,14
59.2408,18
59.4265,22
59.6123,30
59.7980,17
59.9838,21
60.0024,12