File: notebooks/data/xrd_data/ML_20220720_25_SJD_4_LaB6-1min.csv
;,2THETA,
5.0000,88
5.1858,114
5.3715,92
5.5573,83
5.7430,77
5.9288,84
6.1145,62
6.3003,67
6.4860,56
6.6718,70
6.8576,55
7.0433,55
7.2291,54
7.4148,72
7.6006,62
7.7863,69
7.9721,82
8.1579,79
8.3436,72
8.5294,70
8.7151,70
8.9009,75
9.0866,74
9.2724,70
9.4581,85
9.6439,74
9.8297,88
10.0154,95
10.2012,90
10.3869,96
10.5727,73
10.7584,96
10.9442,84
11.1299,82
11.3157,67
11.5015,94
11.6872,89
11.8730,73
12.0587,81
12.2445,95
12.4302,78
12.6160,71
12.8018,77
12.9875,68
13.1733,81
13.3590,76
13.5448,79
13.7305,79
13.9163,80
14.1020,52
14.2878,56
14.4736,63
14.6593,60
14.8451,61
15.0308,54
15.2166,55
15.4023,70
15.5881,59
15.7738,57
15.9596,62
16.1454,64
16.3311,69
16.5169,63
16.7026,64
16.8884,47
17.0741,66
17.2599,60
17.4457,48
17.6314,67
17.8172,61
18.0029,58
18.1887,70
18.3744,65
18.5602,61
18.7459,54
18.9317,62
19.1175,68
19.3032,70
19.4890,66
19.6747,69
19.8605,64
20.0462,70
20.2320,64
20.4177,72
20.6035,75
20.7893,71
20.9750,65
21.1608,103
21.3465,154
21.5323,77
21.7180,71
21.9038,71
22.0896,91
22.2753,70
22.4611,59
22.6468,76
22.8326,56
23.0183,86
23.2041,89
23.3898,73
23.5756,67
23.7614,66
23.9471,62
24.1329,83
24.3186,81
24.5044,78
24.6901,67
24.8759,77
25.0616,78
25.2474,59
25.4332,72
25.6189,76
25.8047,72
25.9904,69
26.1762,58
26.3619,59
26.5477,68
26.7335,79
26.9192,80
27.1050,72
27.2907,73
27.4765,70
27.6622,74
27.8480,76
28.0337,48
28.2195,58
28.4053,73
28.5910,49
28.7768,62
28.9625,56
29.1483,52
29.3340,63
29.5198,64
29.7055,59
29.8913,47
30.0771,69
30.2628,58
30.4486,105
30.6343,61
30.8201,52
31.0058,47
31.1916,64
31.3774,40
31.5631,52
31.7489,40
31.9346,45
32.1204,49
32.3061,45
32.4919,47
32.6776,45
32.8634,43
33.0492,39
33.2349,46
33.4207,48
33.6064,47
33.7922,39
33.9779,36
34.1637,40
34.3494,51
34.5352,37
34.7210,50
34.9067,44
35.0925,41
35.2782,43
35.4640,39
35.6497,37
35.8355,31
36.0213,44
36.2070,35
36.3928,25
36.5785,44
36.7643,39
36.9500,36
37.1358,26
37.3215,31
37.5073,45
37.6931,25
37.8788,33
38.0646,34
38.2503,29
38.4361,40
38.6218,25
38.8076,27
38.9933,29
39.1791,24
39.3649,31
39.5506,31
39.7364,28
39.9221,26
40.1079,35
40.2936,33
40.4794,36
40.6652,34
40.8509,22
41.0367,23
41.2224,29
41.4082,21
41.5939,35
41.7797,27
41.9654,26
42.1512,21
42.3370,22
42.5227,26
42.7085,35
42.8942,30
43.0800,31
43.2657,34
43.4515,41
43.6372,46
43.8230,27
44.0088,26
44.1945,34
44.3803,26
44.5660,25
44.7518,46
44.9375,25
45.1233,25
45.3091,20
45.4948,22
45.6806,28
45.8663,16
46.0521,25
46.2378,18
46.4236,24
46.6093,26
46.7951,24
46.9809,20
47.1666,18
47.3524,19
47.5381,23
47.7239,34
47.9096,23
48.0954,31
48.2811,22
48.4669,17
48.6527,20
48.8384,24
49.0242,27
49.2099,32
49.3957,33
49.5814,22
49.7672,23
49.9530,18
50.1387,21
50.3245,26
50.5102,25
50.6960,20
50.8817,23
51.0675,18
51.2532,26
51.4390,28
51.6248,20
51.8105,29
51.9963,27
52.1820,24
52.3678,24
52.5535,30
52.7393,15
52.9250,19
53.1108,26
53.2966,24
53.4823,15
53.6681,18
53.8538,17
54.0396,17
54.2253,25
54.4111,28
54.5969,20
54.7826,17
54.9684,23
55.1541,18
55.3399,22
55.5256,18
55.7114,25
55.8971,22
56.0829,19
56.2687,13
56.4544,15
56.6402,25
56.8259,15
57.0117,13
57.1974,18
57.3832,22
57.5689,22
57.7547,22
57.9405,15
58.1262,22
58.3120,15
58.4977,15
58.6835,19
58.8692,18
59.0550,25
59.2408,16
59.4265,20
59.6123,28
59.7980,21
59.9838,22
60.0024,31