File: notebooks/data/xrd_data/ML_20220720_8_SJD_4_LaB6-1min.csv
;,2THETA,
5.0000,84
5.1858,82
5.3715,88
5.5573,76
5.7430,77
5.9288,86
6.1145,83
6.3003,73
6.4860,61
6.6718,79
6.8576,53
7.0433,65
7.2291,51
7.4148,52
7.6006,64
7.7863,66
7.9721,78
8.1579,67
8.3436,55
8.5294,74
8.7151,66
8.9009,82
9.0866,98
9.2724,68
9.4581,75
9.6439,76
9.8297,102
10.0154,91
10.2012,76
10.3869,98
10.5727,87
10.7584,84
10.9442,88
11.1299,86
11.3157,85
11.5015,89
11.6872,79
11.8730,78
12.0587,74
12.2445,70
12.4302,70
12.6160,73
12.8018,74
12.9875,78
13.1733,68
13.3590,77
13.5448,78
13.7305,59
13.9163,51
14.1020,61
14.2878,65
14.4736,61
14.6593,65
14.8451,51
15.0308,80
15.2166,62
15.4023,66
15.5881,63
15.7738,70
15.9596,41
16.1454,45
16.3311,63
16.5169,60
16.7026,49
16.8884,72
17.0741,54
17.2599,82
17.4457,46
17.6314,65
17.8172,59
18.0029,57
18.1887,52
18.3744,54
18.5602,62
18.7459,57
18.9317,60
19.1175,61
19.3032,62
19.4890,65
19.6747,61
19.8605,86
20.0462,68
20.2320,71
20.4177,70
20.6035,71
20.7893,73
20.9750,58
21.1608,93
21.3465,179
21.5323,83
21.7180,68
21.9038,74
22.0896,56
22.2753,87
22.4611,74
22.6468,77
22.8326,91
23.0183,71
23.2041,84
23.3898,77
23.5756,78
23.7614,71
23.9471,66
24.1329,80
24.3186,71
24.5044,62
24.6901,52
24.8759,66
25.0616,74
25.2474,64
25.4332,72
25.6189,68
25.8047,62
25.9904,76
26.1762,80
26.3619,76
26.5477,68
26.7335,86
26.9192,87
27.1050,74
27.2907,72
27.4765,69
27.6622,73
27.8480,56
28.0337,58
28.2195,45
28.4053,68
28.5910,59
28.7768,58
28.9625,58
29.1483,50
29.3340,51
29.5198,48
29.7055,66
29.8913,49
30.0771,44
30.2628,48
30.4486,96
30.6343,54
30.8201,42
31.0058,46
31.1916,53
31.3774,59
31.5631,56
31.7489,38
31.9346,59
32.1204,54
32.3061,41
32.4919,45
32.6776,49
32.8634,54
33.0492,34
33.2349,44
33.4207,37
33.6064,37
33.7922,46
33.9779,36
34.1637,43
34.3494,41
34.5352,46
34.7210,57
34.9067,36
35.0925,42
35.2782,49
35.4640,26
35.6497,44
35.8355,31
36.0213,27
36.2070,31
36.3928,44
36.5785,30
36.7643,31
36.9500,31
37.1358,40
37.3215,34
37.5073,44
37.6931,36
37.8788,25
38.0646,26
38.2503,27
38.4361,29
38.6218,26
38.8076,29
38.9933,26
39.1791,34
39.3649,27
39.5506,38
39.7364,38
39.9221,26
40.1079,31
40.2936,23
40.4794,19
40.6652,26
40.8509,21
41.0367,26
41.2224,27
41.4082,24
41.5939,26
41.7797,31
41.9654,31
42.1512,21
42.3370,23
42.5227,31
42.7085,25
42.8942,34
43.0800,24
43.2657,39
43.4515,37
43.6372,32
43.8230,36
44.0088,23
44.1945,30
44.3803,25
44.5660,28
44.7518,31
44.9375,32
45.1233,32
45.3091,21
45.4948,20
45.6806,26
45.8663,18
46.0521,22
46.2378,21
46.4236,23
46.6093,24
46.7951,24
46.9809,25
47.1666,28
47.3524,30
47.5381,29
47.7239,24
47.9096,26
48.0954,24
48.2811,25
48.4669,31
48.6527,26
48.8384,28
49.0242,24
49.2099,15
49.3957,23
49.5814,18
49.7672,27
49.9530,29
50.1387,31
50.3245,33
50.5102,16
50.6960,24
50.8817,19
51.0675,25
51.2532,28
51.4390,22
51.6248,24
51.8105,23
51.9963,24
52.1820,23
52.3678,23
52.5535,22
52.7393,10
52.9250,21
53.1108,23
53.2966,15
53.4823,20
53.6681,25
53.8538,25
54.0396,22
54.2253,22
54.4111,16
54.5969,23
54.7826,23
54.9684,28
55.1541,30
55.3399,12
55.5256,22
55.7114,24
55.8971,18
56.0829,26
56.2687,23
56.4544,22
56.6402,21
56.8259,21
57.0117,21
57.1974,25
57.3832,16
57.5689,26
57.7547,16
57.9405,25
58.1262,16
58.3120,19
58.4977,18
58.6835,19
58.8692,15
59.0550,18
59.2408,16
59.4265,19
59.6123,17
59.7980,22
59.9838,26
60.0024,17