File: notebooks/data/xrd_data/ML_20220720_13_SJD_4_LaB6-1min.csv
;,2THETA,
5.0000,103
5.1858,86
5.3715,85
5.5573,90
5.7430,86
5.9288,81
6.1145,78
6.3003,60
6.4860,71
6.6718,73
6.8576,55
7.0433,45
7.2291,56
7.4148,61
7.6006,63
7.7863,77
7.9721,58
8.1579,68
8.3436,76
8.5294,76
8.7151,91
8.9009,73
9.0866,83
9.2724,70
9.4581,81
9.6439,89
9.8297,88
10.0154,78
10.2012,99
10.3869,89
10.5727,85
10.7584,85
10.9442,91
11.1299,92
11.3157,87
11.5015,86
11.6872,95
11.8730,79
12.0587,88
12.2445,85
12.4302,88
12.6160,86
12.8018,74
12.9875,83
13.1733,77
13.3590,68
13.5448,61
13.7305,62
13.9163,67
14.1020,63
14.2878,89
14.4736,58
14.6593,58
14.8451,58
15.0308,64
15.2166,66
15.4023,60
15.5881,66
15.7738,65
15.9596,46
16.1454,65
16.3311,57
16.5169,79
16.7026,52
16.8884,60
17.0741,64
17.2599,67
17.4457,64
17.6314,50
17.8172,71
18.0029,62
18.1887,46
18.3744,56
18.5602,58
18.7459,69
18.9317,57
19.1175,60
19.3032,53
19.4890,70
19.6747,70
19.8605,71
20.0462,73
20.2320,67
20.4177,65
20.6035,53
20.7893,63
20.9750,77
21.1608,92
21.3465,181
21.5323,80
21.7180,88
21.9038,69
22.0896,69
22.2753,62
22.4611,92
22.6468,63
22.8326,66
23.0183,73
23.2041,69
23.3898,64
23.5756,83
23.7614,73
23.9471,81
24.1329,51
24.3186,86
24.5044,73
24.6901,57
24.8759,67
25.0616,72
25.2474,53
25.4332,70
25.6189,67
25.8047,76
25.9904,60
26.1762,47
26.3619,69
26.5477,86
26.7335,64
26.9192,68
27.1050,77
27.2907,74
27.4765,60
27.6622,49
27.8480,66
28.0337,74
28.2195,62
28.4053,58
28.5910,60
28.7768,53
28.9625,59
29.1483,58
29.3340,56
29.5198,52
29.7055,58
29.8913,43
30.0771,66
30.2628,55
30.4486,101
30.6343,47
30.8201,58
31.0058,59
31.1916,52
31.3774,70
31.5631,61
31.7489,46
31.9346,57
32.1204,48
32.3061,60
32.4919,54
32.6776,45
32.8634,35
33.0492,45
33.2349,56
33.4207,47
33.6064,51
33.7922,39
33.9779,48
34.1637,31
34.3494,42
34.5352,28
34.7210,56
34.9067,46
35.0925,40
35.2782,38
35.4640,35
35.6497,35
35.8355,29
36.0213,24
36.2070,30
36.3928,35
36.5785,41
36.7643,29
36.9500,38
37.1358,40
37.3215,33
37.5073,52
37.6931,30
37.8788,19
38.0646,18
38.2503,36
38.4361,28
38.6218,29
38.8076,18
38.9933,23
39.1791,44
39.3649,29
39.5506,22
39.7364,26
39.9221,32
40.1079,30
40.2936,32
40.4794,23
40.6652,29
40.8509,32
41.0367,32
41.2224,29
41.4082,36
41.5939,25
41.7797,34
41.9654,29
42.1512,22
42.3370,22
42.5227,16
42.7085,31
42.8942,27
43.0800,28
43.2657,33
43.4515,27
43.6372,38
43.8230,27
44.0088,34
44.1945,30
44.3803,30
44.5660,34
44.7518,28
44.9375,26
45.1233,19
45.3091,24
45.4948,32
45.6806,28
45.8663,40
46.0521,32
46.2378,16
46.4236,28
46.6093,21
46.7951,25
46.9809,23
47.1666,20
47.3524,21
47.5381,23
47.7239,15
47.9096,11
48.0954,29
48.2811,25
48.4669,26
48.6527,18
48.8384,18
49.0242,18
49.2099,25
49.3957,22
49.5814,18
49.7672,20
49.9530,19
50.1387,27
50.3245,24
50.5102,20
50.6960,22
50.8817,21
51.0675,20
51.2532,22
51.4390,28
51.6248,26
51.8105,21
51.9963,15
52.1820,21
52.3678,24
52.5535,12
52.7393,17
52.9250,21
53.1108,19
53.2966,25
53.4823,21
53.6681,19
53.8538,19
54.0396,28
54.2253,35
54.4111,24
54.5969,18
54.7826,16
54.9684,23
55.1541,15
55.3399,20
55.5256,21
55.7114,15
55.8971,21
56.0829,23
56.2687,23
56.4544,19
56.6402,23
56.8259,19
57.0117,27
57.1974,23
57.3832,14
57.5689,24
57.7547,26
57.9405,21
58.1262,19
58.3120,16
58.4977,20
58.6835,26
58.8692,14
59.0550,22
59.2408,19
59.4265,20
59.6123,17
59.7980,20
59.9838,21
60.0024,16