File: notebooks/data/xrd_data/ML_20220721_13_SJD_4_LaB6-4min.uxd
; (content of file Y:\Sam\Apurva-07-20-2022\puck1\ML_20220721_13_SJD_0_LaB6-4min.raw)
_FILEVERSION = 3
_SAMPLE = ML_20220721_13_SJD_0_LaB6-4min
_+SAMPLE =
_SITE = USA
_USER = Administrator
_GONIOMETER_CODE = 20
; Goniometer : D8 theta/2theta, stage : Unknown
_ATTACHMENTS_CODE = 0
_GONIOMETER_RADIUS = 200.5
_FIXED_DIVSLIT = 0.6
_FIXED_SAMPLESLIT = 0
_SOLLER_SLITS = 2
_FIXED_DETSLIT = 9.55
_MONOCHROMATOR = 0
; Incident beam monochromator : None
_SOLLER_SLITS_2 = N
_THIN_FILM = N
_BETA_FILTER = Y
_FIXED_ANTISLIT = 5.89
_ANALYZER_CODE = 0
; Received beam analyzer : None
_DATEMEASURED = "25-Jul-2022 14:50:52"
_WL_UNIT = A
_WL1 = 1.5406
_WL2 = 1.54439
_WL3 = 1.39222
_WLRATIO = 0.5
_ANODE = Cu
_V4_INF_CREATOR = XRDWizard
_V4_INF_CREATOR_VERSION = V2.9.0.22
_V4_INF_WIZARD_VERSION = V2.9.0.22
_V4_INF_WIZARD_ADDINS = V2.9.0.22
_V4_INF_WIZARD_DOCTYPE = XRD
_V4_INF_OSUSER = McQueenLab
_V4_INF_USER = Administrator
_V4_INF_SITE = USA
_V4_INF_SAMPLEID = ML_20220721_13_SJD_0_LaB6-4min

; Data for range 1
_DRIVE = COUPLED
_STEPTIME = 11.28
_STEPSIZE = 0.0185756
_STEPMODE = C
_START = 5
_THETA = 2.5
_2THETA = 5
_KHI = 0
_PHI = 0
_X = 0
_Y = 0
_Z = 0
_DETECTOR = 5
; Detector type : Unknown
_DETECTORSLIT = unkn
_AUX1 = 0
_AUX2 = 0
_AUX3 = 0
_TIMESTARTED = 15
_TEMP_RATE = -1
_TEMP_DELAY = -1
_KV = 40
_MA = 40
_RANGE_WL = 1.5406
_3DPLANE = 0
_V4_ADDITIONALDETECTOR = 257
_V4_PSD2THETA = 3.3889
_V4_PSDCHANNEL1 = 0
_V4_PSDAPERTURE = 12.68
_V4_PSDTYPE = 5
_V4_PSDFIXED = 0
_V4_COUNTERS_MASK = 4096
_V4_DRIVES_MASK = 0
_V4_ENCODERS_MASK = 0
_2THETACOUNTS = 1
; 2THETA  PSD
   5.0000        288
   5.1858        258
   5.3715        257
   5.5573        223
   5.7430        212
   5.9288        215
   6.1145        184
   6.3003        182
   6.4860        177
   6.6718        204
   6.8576        158
   7.0433        152
   7.2291        149
   7.4148        148
   7.6006        178
   7.7863        183
   7.9721        184
   8.1579        177
   8.3436        200
   8.5294        193
   8.7151        214
   8.9009        208
   9.0866        210
   9.2724        243
   9.4581        236
   9.6439        230
   9.8297        251
  10.0154        271
  10.2012        249
  10.3869        255
  10.5727        266
  10.7584        247
  10.9442        222
  11.1299        235
  11.3157        233
  11.5015        257
  11.6872        253
  11.8730        255
  12.0587        238
  12.2445        261
  12.4302        211
  12.6160        217
  12.8018        201
  12.9875        214
  13.1733        209
  13.3590        201
  13.5448        192
  13.7305        172
  13.9163        188
  14.1020        178
  14.2878        180
  14.4736        183
  14.6593        180
  14.8451        185
  15.0308        180
  15.2166        149
  15.4023        162
  15.5881        150
  15.7738        171
  15.9596        187
  16.1454        166
  16.3311        190
  16.5169        154
  16.7026        171
  16.8884        161
  17.0741        149
  17.2599        142
  17.4457        151
  17.6314        148
  17.8172        166
  18.0029        176
  18.1887        140
  18.3744        186
  18.5602        184
  18.7459        175
  18.9317        150
  19.1175        173
  19.3032        176
  19.4890        193
  19.6747        188
  19.8605        160
  20.0462        190
  20.2320        182
  20.4177        178
  20.6035        178
  20.7893        212
  20.9750        197
  21.1608        259
  21.3465        494
  21.5323        193
  21.7180        202
  21.9038        200
  22.0896        182
  22.2753        197
  22.4611        197
  22.6468        213
  22.8326        195
  23.0183        213
  23.2041        195
  23.3898        207
  23.5756        227
  23.7614        212
  23.9471        219
  24.1329        196
  24.3186        251
  24.5044        218
  24.6901        189
  24.8759        198
  25.0616        201
  25.2474        187
  25.4332        197
  25.6189        209
  25.8047        190
  25.9904        174
  26.1762        196
  26.3619        187
  26.5477        181
  26.7335        181
  26.9192        192
  27.1050        187
  27.2907        199
  27.4765        190
  27.6622        173
  27.8480        183
  28.0337        181
  28.2195        202
  28.4053        179
  28.5910        178
  28.7768        160
  28.9625        183
  29.1483        195
  29.3340        157
  29.5198        143
  29.7055        185
  29.8913        184
  30.0771        179
  30.2628        187
  30.4486        231
  30.6343        159
  30.8201        162
  31.0058        146
  31.1916        144
  31.3774        144
  31.5631        139
  31.7489        133
  31.9346        127
  32.1204        134
  32.3061        139
  32.4919        139
  32.6776        134
  32.8634        123
  33.0492        138
  33.2349        146
  33.4207        114
  33.6064        122
  33.7922        146
  33.9779        124
  34.1637        100
  34.3494        117
  34.5352        113
  34.7210        138
  34.9067        142
  35.0925         98
  35.2782        117
  35.4640        102
  35.6497         95
  35.8355         93
  36.0213        107
  36.2070         85
  36.3928         98
  36.5785         89
  36.7643         96
  36.9500         93
  37.1358         96
  37.3215         99
  37.5073        112
  37.6931         84
  37.8788         98
  38.0646         78
  38.2503         84
  38.4361         80
  38.6218         94
  38.8076         96
  38.9933         89
  39.1791         83
  39.3649         89
  39.5506         78
  39.7364         75
  39.9221         67
  40.1079         77
  40.2936         84
  40.4794         84
  40.6652         73
  40.8509         74
  41.0367         59
  41.2224         87
  41.4082         75
  41.5939         74
  41.7797         80
  41.9654         83
  42.1512         76
  42.3370         70
  42.5227         77
  42.7085         75
  42.8942         89
  43.0800         81
  43.2657         97
  43.4515         99
  43.6372         97
  43.8230         82
  44.0088         77
  44.1945         71
  44.3803         84
  44.5660         81
  44.7518         52
  44.9375         91
  45.1233         74
  45.3091         63
  45.4948         58
  45.6806         59
  45.8663         65
  46.0521         71
  46.2378         56
  46.4236         74
  46.6093         61
  46.7951         52
  46.9809         68
  47.1666         78
  47.3524         55
  47.5381         66
  47.7239         51
  47.9096         66
  48.0954         57
  48.2811         68
  48.4669         74
  48.6527         53
  48.8384         64
  49.0242         88
  49.2099         70
  49.3957         68
  49.5814         63
  49.7672         60
  49.9530         74
  50.1387         71
  50.3245         65
  50.5102         65
  50.6960         64
  50.8817         49
  51.0675         65
  51.2532         54
  51.4390         73
  51.6248         63
  51.8105         66
  51.9963         65
  52.1820         52
  52.3678         65
  52.5535         57
  52.7393         67
  52.9250         56
  53.1108         59
  53.2966         52
  53.4823         55
  53.6681         55
  53.8538         57
  54.0396         74
  54.2253         62
  54.4111         48
  54.5969         55
  54.7826         50
  54.9684         50
  55.1541         58
  55.3399         69
  55.5256         50
  55.7114         68
  55.8971         52
  56.0829         49
  56.2687         70
  56.4544         65
  56.6402         66
  56.8259         72
  57.0117         63
  57.1974         73
  57.3832         59
  57.5689         47
  57.7547         44
  57.9405         59
  58.1262         60
  58.3120         49
  58.4977         62
  58.6835         52
  58.8692         55
  59.0550         60
  59.2408         62
  59.4265         54
  59.6123         58
  59.7980         53
  59.9838         48
  60.0024         54