File: notebooks/data/xrd_data/ML_20220718_13_SJD_4_LaB6-2min.csv
;,2THETA,
5.0000,130
5.1858,107
5.3715,131
5.5573,113
5.7430,103
5.9288,118
6.1145,93
6.3003,79
6.4860,88
6.6718,84
6.8576,78
7.0433,83
7.2291,81
7.4148,92
7.6006,76
7.7863,84
7.9721,102
8.1579,84
8.3436,76
8.5294,106
8.7151,98
8.9009,101
9.0866,117
9.2724,108
9.4581,100
9.6439,115
9.8297,111
10.0154,121
10.2012,110
10.3869,131
10.5727,119
10.7584,120
10.9442,129
11.1299,135
11.3157,120
11.5015,113
11.6872,115
11.8730,113
12.0587,115
12.2445,126
12.4302,114
12.6160,118
12.8018,101
12.9875,103
13.1733,89
13.3590,104
13.5448,101
13.7305,90
13.9163,85
14.1020,84
14.2878,98
14.4736,96
14.6593,84
14.8451,77
15.0308,82
15.2166,91
15.4023,86
15.5881,88
15.7738,72
15.9596,78
16.1454,79
16.3311,85
16.5169,89
16.7026,74
16.8884,80
17.0741,101
17.2599,75
17.4457,69
17.6314,64
17.8172,74
18.0029,90
18.1887,90
18.3744,94
18.5602,83
18.7459,80
18.9317,81
19.1175,85
19.3032,96
19.4890,81
19.6747,82
19.8605,97
20.0462,89
20.2320,95
20.4177,93
20.6035,101
20.7893,90
20.9750,102
21.1608,117
21.3465,238
21.5323,93
21.7180,97
21.9038,97
22.0896,118
22.2753,107
22.4611,98
22.6468,83
22.8326,83
23.0183,84
23.2041,99
23.3898,123
23.5756,93
23.7614,106
23.9471,108
24.1329,106
24.3186,89
24.5044,110
24.6901,114
24.8759,113
25.0616,102
25.2474,99
25.4332,104
25.6189,82
25.8047,86
25.9904,101
26.1762,87
26.3619,100
26.5477,76
26.7335,85
26.9192,94
27.1050,88
27.2907,120
27.4765,81
27.6622,89
27.8480,87
28.0337,86
28.2195,70
28.4053,92
28.5910,69
28.7768,84
28.9625,68
29.1483,74
29.3340,70
29.5198,88
29.7055,83
29.8913,73
30.0771,74
30.2628,91
30.4486,110
30.6343,82
30.8201,72
31.0058,83
31.1916,63
31.3774,66
31.5631,62
31.7489,61
31.9346,70
32.1204,67
32.3061,74
32.4919,74
32.6776,65
32.8634,75
33.0492,59
33.2349,61
33.4207,58
33.6064,67
33.7922,43
33.9779,60
34.1637,61
34.3494,55
34.5352,61
34.7210,64
34.9067,57
35.0925,49
35.2782,46
35.4640,47
35.6497,52
35.8355,40
36.0213,60
36.2070,62
36.3928,48
36.5785,51
36.7643,54
36.9500,48
37.1358,45
37.3215,48
37.5073,39
37.6931,46
37.8788,37
38.0646,35
38.2503,47
38.4361,43
38.6218,41
38.8076,40
38.9933,37
39.1791,30
39.3649,43
39.5506,44
39.7364,41
39.9221,48
40.1079,35
40.2936,32
40.4794,39
40.6652,41
40.8509,39
41.0367,30
41.2224,33
41.4082,34
41.5939,43
41.7797,34
41.9654,44
42.1512,35
42.3370,39
42.5227,43
42.7085,27
42.8942,24
43.0800,41
43.2657,45
43.4515,46
43.6372,50
43.8230,41
44.0088,37
44.1945,53
44.3803,30
44.5660,44
44.7518,39
44.9375,34
45.1233,29
45.3091,32
45.4948,44
45.6806,37
45.8663,32
46.0521,38
46.2378,38
46.4236,37
46.6093,33
46.7951,33
46.9809,43
47.1666,34
47.3524,29
47.5381,34
47.7239,37
47.9096,33
48.0954,31
48.2811,40
48.4669,39
48.6527,28
48.8384,37
49.0242,39
49.2099,27
49.3957,40
49.5814,35
49.7672,32
49.9530,32
50.1387,35
50.3245,33
50.5102,28
50.6960,24
50.8817,26
51.0675,28
51.2532,31
51.4390,37
51.6248,25
51.8105,31
51.9963,38
52.1820,36
52.3678,25
52.5535,26
52.7393,38
52.9250,26
53.1108,24
53.2966,23
53.4823,36
53.6681,21
53.8538,33
54.0396,42
54.2253,34
54.4111,31
54.5969,33
54.7826,28
54.9684,23
55.1541,36
55.3399,32
55.5256,26
55.7114,31
55.8971,27
56.0829,29
56.2687,25
56.4544,29
56.6402,21
56.8259,34
57.0117,20
57.1974,30
57.3832,29
57.5689,17
57.7547,23
57.9405,30
58.1262,29
58.3120,28
58.4977,36
58.6835,31
58.8692,28
59.0550,23
59.2408,31
59.4265,29
59.6123,24
59.7980,22
59.9838,30
60.0024,28